*Name: Leaf bot
Type: Leaf Spectrum
Particle Size: Solid
Wavelength Range: All

Origin: Remote Sensing Laboratories, University of Zurich

Description: abaxial reflectance, adaxial reflectance, and adaxial transmittance measured by ASD Integrating Sphere

Measurement: Hemispherical Conical Reflectance Factor HCRF

First Column:  X Wavelength (micrometers)
Second Column:  Y Reflectance (percent)
First X Value: 0.369
Last X Value: 2.493
Number of X Values: 2125
Additional Information:  None*

*Number of Lambda pertinent values : *  2125
*Lambda_min - Lambda_max : *  0.369 2.493
*Leaf parameters : Upper type of roughness [0/1 : cst/var] - Lower type of roughness* 0 0
*Lambda - Lower reflectance - Upper reflectance - Transmittance - Lower refraction index - Upper refracton index - Lower roughness [0;1] - Upper roughness - Lower roughness index [0.1;0.3] - Upper roughness index *
0.369	1.3495	1.3094	0.17032	1.4	1.4	0.9	0.9	0.2	0.2
0.37	1.5998	1.553	0.23691	1.4	1.4	0.9	0.9	0.2	0.2
0.371	1.8549	1.7958	0.32055	1.4	1.4	0.9	0.9	0.2	0.2
0.372	2.1109	2.0321	0.39554	1.4	1.4	0.9	0.9	0.2	0.2
0.373	2.357	2.2674	0.46034	1.4	1.4	0.9	0.9	0.2	0.2
0.374	2.5869	2.4969	0.50689	1.4	1.4	0.9	0.9	0.2	0.2
0.375	2.797	2.6937	0.50622	1.4	1.4	0.9	0.9	0.2	0.2
0.376	3.0385	2.9214	0.54499	1.4	1.4	0.9	0.9	0.2	0.2
0.377	3.2878	3.1585	0.60161	1.4	1.4	0.9	0.9	0.2	0.2
0.378	3.492	3.3502	0.61366	1.4	1.4	0.9	0.9	0.2	0.2
0.379	3.6861	3.5358	0.67117	1.4	1.4	0.9	0.9	0.2	0.2
0.38	3.8586	3.7009	0.7289	1.4	1.4	0.9	0.9	0.2	0.2
0.381	4.0065	3.8411	0.76151	1.4	1.4	0.9	0.9	0.2	0.2
0.382	4.1835	4.0133	0.84972	1.4	1.4	0.9	0.9	0.2	0.2
0.383	4.3393	4.1665	0.92515	1.4	1.4	0.9	0.9	0.2	0.2
0.384	4.4554	4.2818	0.97462	1.4	1.4	0.9	0.9	0.2	0.2
0.385	4.5343	4.3609	1.023	1.4	1.4	0.9	0.9	0.2	0.2
0.386	4.5866	4.4193	1.0709	1.4	1.4	0.9	0.9	0.2	0.2
0.387	4.6239	4.4642	1.1325	1.4	1.4	0.9	0.9	0.2	0.2
0.388	4.6541	4.4983	1.2199	1.4	1.4	0.9	0.9	0.2	0.2
0.389	4.6328	4.4851	1.2763	1.4	1.4	0.9	0.9	0.2	0.2
0.39	4.6633	4.5188	1.228	1.4	1.4	0.9	0.9	0.2	0.2
0.391	4.6641	4.5392	1.2579	1.4	1.4	0.9	0.9	0.2	0.2
0.392	4.6343	4.5156	1.2451	1.4	1.4	0.9	0.9	0.2	0.2
0.393	4.6469	4.532	1.2206	1.4	1.4	0.9	0.9	0.2	0.2
0.394	4.7387	4.6349	1.2236	1.4	1.4	0.9	0.9	0.2	0.2
0.395	4.7786	4.6861	1.2077	1.4	1.4	0.9	0.9	0.2	0.2
0.396	4.8023	4.7269	1.1965	1.4	1.4	0.9	0.9	0.2	0.2
0.397	4.8164	4.7541	1.1944	1.4	1.4	0.9	0.9	0.2	0.2
0.398	4.8658	4.7912	1.2501	1.4	1.4	0.9	0.9	0.2	0.2
0.399	4.9239	4.8418	1.2846	1.4	1.4	0.9	0.9	0.2	0.2
0.4	4.9518	4.8756	1.303	1.4	1.4	0.9	0.9	0.2	0.2
0.401	4.9325	4.8806	1.3434	1.4	1.4	0.9	0.9	0.2	0.2
0.402	4.9854	4.9453	1.4535	1.4	1.4	0.9	0.9	0.2	0.2
0.403	5.0246	4.9903	1.5018	1.4	1.4	0.9	0.9	0.2	0.2
0.404	5.0252	4.9959	1.452	1.4	1.4	0.9	0.9	0.2	0.2
0.405	5.0506	5.0292	1.4421	1.4	1.4	0.9	0.9	0.2	0.2
0.406	5.0475	5.029	1.424	1.4	1.4	0.9	0.9	0.2	0.2
0.407	5.0319	5.0145	1.4006	1.4	1.4	0.9	0.9	0.2	0.2
0.408	5.0199	5.008	1.3642	1.4	1.4	0.9	0.9	0.2	0.2
0.409	5.0047	5.005	1.3263	1.4	1.4	0.9	0.9	0.2	0.2
0.41	4.9871	4.9915	1.276	1.4	1.4	0.9	0.9	0.2	0.2
0.411	4.9786	4.9735	1.2283	1.4	1.4	0.9	0.9	0.2	0.2
0.412	5.0004	4.9973	1.2443	1.4	1.4	0.9	0.9	0.2	0.2
0.413	4.9925	4.9932	1.2389	1.4	1.4	0.9	0.9	0.2	0.2
0.414	4.9603	4.9636	1.2165	1.4	1.4	0.9	0.9	0.2	0.2
0.415	4.9573	4.9634	1.2451	1.4	1.4	0.9	0.9	0.2	0.2
0.416	4.9508	4.9587	1.2417	1.4	1.4	0.9	0.9	0.2	0.2
0.417	4.9621	4.9715	1.2442	1.4	1.4	0.9	0.9	0.2	0.2
0.418	5.0024	5.0148	1.2866	1.4	1.4	0.9	0.9	0.2	0.2
0.419	5.0007	5.0163	1.2755	1.4	1.4	0.9	0.9	0.2	0.2
0.42	4.9942	5.0124	1.2689	1.4	1.4	0.9	0.9	0.2	0.2
0.421	5.0021	5.0231	1.2904	1.4	1.4	0.9	0.9	0.2	0.2
0.422	5.0262	5.052	1.3242	1.4	1.4	0.9	0.9	0.2	0.2
0.423	5.0621	5.0872	1.3682	1.4	1.4	0.9	0.9	0.2	0.2
0.424	5.0906	5.113	1.4028	1.4	1.4	0.9	0.9	0.2	0.2
0.425	5.0864	5.1106	1.4003	1.4	1.4	0.9	0.9	0.2	0.2
0.426	5.0805	5.1052	1.4077	1.4	1.4	0.9	0.9	0.2	0.2
0.427	5.0892	5.1117	1.4348	1.4	1.4	0.9	0.9	0.2	0.2
0.428	5.1159	5.1333	1.4786	1.4	1.4	0.9	0.9	0.2	0.2
0.429	5.1268	5.1392	1.4966	1.4	1.4	0.9	0.9	0.2	0.2
0.43	5.1287	5.1389	1.5032	1.4	1.4	0.9	0.9	0.2	0.2
0.431	5.1328	5.1446	1.5112	1.4	1.4	0.9	0.9	0.2	0.2
0.432	5.1569	5.1729	1.5352	1.4	1.4	0.9	0.9	0.2	0.2
0.433	5.1592	5.1762	1.5399	1.4	1.4	0.9	0.9	0.2	0.2
0.434	5.1577	5.173	1.5433	1.4	1.4	0.9	0.9	0.2	0.2
0.435	5.1749	5.1875	1.5671	1.4	1.4	0.9	0.9	0.2	0.2
0.436	5.184	5.1942	1.5847	1.4	1.4	0.9	0.9	0.2	0.2
0.437	5.1932	5.2022	1.6037	1.4	1.4	0.9	0.9	0.2	0.2
0.438	5.2049	5.2136	1.6246	1.4	1.4	0.9	0.9	0.2	0.2
0.439	5.2082	5.2169	1.632	1.4	1.4	0.9	0.9	0.2	0.2
0.44	5.2108	5.2195	1.6393	1.4	1.4	0.9	0.9	0.2	0.2
0.441	5.2123	5.2211	1.6498	1.4	1.4	0.9	0.9	0.2	0.2
0.442	5.2095	5.2179	1.6625	1.4	1.4	0.9	0.9	0.2	0.2
0.443	5.2251	5.2331	1.6943	1.4	1.4	0.9	0.9	0.2	0.2
0.444	5.2435	5.2501	1.7274	1.4	1.4	0.9	0.9	0.2	0.2
0.445	5.2493	5.2531	1.7452	1.4	1.4	0.9	0.9	0.2	0.2
0.446	5.2541	5.2562	1.7603	1.4	1.4	0.9	0.9	0.2	0.2
0.447	5.262	5.2635	1.7821	1.4	1.4	0.9	0.9	0.2	0.2
0.448	5.2715	5.2734	1.8097	1.4	1.4	0.9	0.9	0.2	0.2
0.449	5.2755	5.2756	1.8295	1.4	1.4	0.9	0.9	0.2	0.2
0.45	5.2001	5.1963	1.7604	1.4	1.4	0.9	0.9	0.2	0.2
0.451	5.2101	5.2081	1.7975	1.4	1.4	0.9	0.9	0.2	0.2
0.452	5.245	5.2431	1.8592	1.4	1.4	0.9	0.9	0.2	0.2
0.453	5.2859	5.2854	1.9276	1.4	1.4	0.9	0.9	0.2	0.2
0.454	5.3095	5.3101	1.9664	1.4	1.4	0.9	0.9	0.2	0.2
0.455	5.3127	5.3162	1.9756	1.4	1.4	0.9	0.9	0.2	0.2
0.456	5.3102	5.3168	1.9792	1.4	1.4	0.9	0.9	0.2	0.2
0.457	5.3254	5.3321	2.0074	1.4	1.4	0.9	0.9	0.2	0.2
0.458	5.324	5.3276	2.0291	1.4	1.4	0.9	0.9	0.2	0.2
0.459	5.3192	5.3208	2.0438	1.4	1.4	0.9	0.9	0.2	0.2
0.46	5.3181	5.3175	2.0553	1.4	1.4	0.9	0.9	0.2	0.2
0.461	5.3059	5.3074	2.0641	1.4	1.4	0.9	0.9	0.2	0.2
0.462	5.2911	5.2942	2.0602	1.4	1.4	0.9	0.9	0.2	0.2
0.463	5.2877	5.2885	2.0539	1.4	1.4	0.9	0.9	0.2	0.2
0.464	5.2851	5.2868	2.0426	1.4	1.4	0.9	0.9	0.2	0.2
0.465	5.2903	5.294	2.0471	1.4	1.4	0.9	0.9	0.2	0.2
0.466	5.3013	5.3068	2.066	1.4	1.4	0.9	0.9	0.2	0.2
0.467	5.3211	5.3326	2.0939	1.4	1.4	0.9	0.9	0.2	0.2
0.468	5.3363	5.3495	2.107	1.4	1.4	0.9	0.9	0.2	0.2
0.469	5.3425	5.353	2.1095	1.4	1.4	0.9	0.9	0.2	0.2
0.47	5.3455	5.3542	2.1057	1.4	1.4	0.9	0.9	0.2	0.2
0.471	5.3632	5.3683	2.129	1.4	1.4	0.9	0.9	0.2	0.2
0.472	5.373	5.3749	2.1556	1.4	1.4	0.9	0.9	0.2	0.2
0.473	5.3772	5.3764	2.1749	1.4	1.4	0.9	0.9	0.2	0.2
0.474	5.3706	5.3666	2.1817	1.4	1.4	0.9	0.9	0.2	0.2
0.475	5.3598	5.3547	2.1859	1.4	1.4	0.9	0.9	0.2	0.2
0.476	5.3675	5.359	2.2031	1.4	1.4	0.9	0.9	0.2	0.2
0.477	5.3781	5.3653	2.2162	1.4	1.4	0.9	0.9	0.2	0.2
0.478	5.3762	5.364	2.2193	1.4	1.4	0.9	0.9	0.2	0.2
0.479	5.3723	5.3607	2.2259	1.4	1.4	0.9	0.9	0.2	0.2
0.48	5.3726	5.362	2.2438	1.4	1.4	0.9	0.9	0.2	0.2
0.481	5.3773	5.3705	2.2613	1.4	1.4	0.9	0.9	0.2	0.2
0.482	5.3749	5.3681	2.2663	1.4	1.4	0.9	0.9	0.2	0.2
0.483	5.3698	5.3613	2.2666	1.4	1.4	0.9	0.9	0.2	0.2
0.484	5.3719	5.3658	2.2714	1.4	1.4	0.9	0.9	0.2	0.2
0.485	5.3817	5.3781	2.2922	1.4	1.4	0.9	0.9	0.2	0.2
0.486	5.3867	5.3863	2.3058	1.4	1.4	0.9	0.9	0.2	0.2
0.487	5.3871	5.393	2.3144	1.4	1.4	0.9	0.9	0.2	0.2
0.488	5.3826	5.393	2.3178	1.4	1.4	0.9	0.9	0.2	0.2
0.489	5.3915	5.401	2.3274	1.4	1.4	0.9	0.9	0.2	0.2
0.49	5.419	5.4254	2.3671	1.4	1.4	0.9	0.9	0.2	0.2
0.491	5.4314	5.4357	2.3926	1.4	1.4	0.9	0.9	0.2	0.2
0.492	5.4351	5.4379	2.4091	1.4	1.4	0.9	0.9	0.2	0.2
0.493	5.4433	5.4457	2.4366	1.4	1.4	0.9	0.9	0.2	0.2
0.494	5.4544	5.4562	2.4749	1.4	1.4	0.9	0.9	0.2	0.2
0.495	5.4668	5.4675	2.5164	1.4	1.4	0.9	0.9	0.2	0.2
0.496	5.4819	5.4825	2.566	1.4	1.4	0.9	0.9	0.2	0.2
0.497	5.5023	5.5021	2.6244	1.4	1.4	0.9	0.9	0.2	0.2
0.498	5.5285	5.5289	2.6873	1.4	1.4	0.9	0.9	0.2	0.2
0.499	5.554	5.5561	2.7489	1.4	1.4	0.9	0.9	0.2	0.2
0.5	5.5791	5.5842	2.8116	1.4	1.4	0.9	0.9	0.2	0.2
0.501	5.6101	5.619	2.8862	1.4	1.4	0.9	0.9	0.2	0.2
0.502	5.6473	5.6564	2.9661	1.4	1.4	0.9	0.9	0.2	0.2
0.503	5.6967	5.7036	3.0654	1.4	1.4	0.9	0.9	0.2	0.2
0.504	5.7599	5.7651	3.1941	1.4	1.4	0.9	0.9	0.2	0.2
0.505	5.8198	5.8236	3.3156	1.4	1.4	0.9	0.9	0.2	0.2
0.506	5.8752	5.8793	3.4383	1.4	1.4	0.9	0.9	0.2	0.2
0.507	5.9423	5.9466	3.5852	1.4	1.4	0.9	0.9	0.2	0.2
0.508	6.0147	6.018	3.7484	1.4	1.4	0.9	0.9	0.2	0.2
0.509	6.0937	6.097	3.9286	1.4	1.4	0.9	0.9	0.2	0.2
0.51	6.1731	6.1781	4.1187	1.4	1.4	0.9	0.9	0.2	0.2
0.511	6.2578	6.2635	4.3194	1.4	1.4	0.9	0.9	0.2	0.2
0.512	6.3512	6.3573	4.5344	1.4	1.4	0.9	0.9	0.2	0.2
0.513	6.4551	6.4633	4.7697	1.4	1.4	0.9	0.9	0.2	0.2
0.514	6.5645	6.574	5.0177	1.4	1.4	0.9	0.9	0.2	0.2
0.515	6.677	6.6863	5.2753	1.4	1.4	0.9	0.9	0.2	0.2
0.516	6.7998	6.8081	5.5488	1.4	1.4	0.9	0.9	0.2	0.2
0.517	6.9424	6.949	5.8521	1.4	1.4	0.9	0.9	0.2	0.2
0.518	7.0964	7.1008	6.1734	1.4	1.4	0.9	0.9	0.2	0.2
0.519	7.2453	7.2492	6.4967	1.4	1.4	0.9	0.9	0.2	0.2
0.52	7.3975	7.4006	6.8314	1.4	1.4	0.9	0.9	0.2	0.2
0.521	7.5626	7.5632	7.1828	1.4	1.4	0.9	0.9	0.2	0.2
0.522	7.7328	7.731	7.5409	1.4	1.4	0.9	0.9	0.2	0.2
0.523	7.903	7.8999	7.898	1.4	1.4	0.9	0.9	0.2	0.2
0.524	8.072	8.0676	8.2482	1.4	1.4	0.9	0.9	0.2	0.2
0.525	8.2467	8.2401	8.5955	1.4	1.4	0.9	0.9	0.2	0.2
0.526	8.4211	8.4119	8.9379	1.4	1.4	0.9	0.9	0.2	0.2
0.527	8.5915	8.5809	9.2713	1.4	1.4	0.9	0.9	0.2	0.2
0.528	8.7533	8.7405	9.5849	1.4	1.4	0.9	0.9	0.2	0.2
0.529	8.9124	8.8963	9.8832	1.4	1.4	0.9	0.9	0.2	0.2
0.53	9.0691	9.051	10.169	1.4	1.4	0.9	0.9	0.2	0.2
0.531	9.2208	9.2012	10.444	1.4	1.4	0.9	0.9	0.2	0.2
0.532	9.3584	9.3373	10.6967	1.4	1.4	0.9	0.9	0.2	0.2
0.533	9.48	9.4572	10.9237	1.4	1.4	0.9	0.9	0.2	0.2
0.534	9.5966	9.5709	11.1383	1.4	1.4	0.9	0.9	0.2	0.2
0.535	9.6994	9.6723	11.3319	1.4	1.4	0.9	0.9	0.2	0.2
0.536	9.7837	9.7549	11.5	1.4	1.4	0.9	0.9	0.2	0.2
0.537	9.855	9.8259	11.6469	1.4	1.4	0.9	0.9	0.2	0.2
0.538	9.9185	9.8897	11.7759	1.4	1.4	0.9	0.9	0.2	0.2
0.539	9.9698	9.9404	11.8847	1.4	1.4	0.9	0.9	0.2	0.2
0.54	10.007	9.9772	11.9761	1.4	1.4	0.9	0.9	0.2	0.2
0.541	10.0366	10.0077	12.0545	1.4	1.4	0.9	0.9	0.2	0.2
0.542	10.0662	10.0394	12.1289	1.4	1.4	0.9	0.9	0.2	0.2
0.543	10.0955	10.0709	12.1972	1.4	1.4	0.9	0.9	0.2	0.2
0.544	10.1241	10.1027	12.2613	1.4	1.4	0.9	0.9	0.2	0.2
0.545	10.1578	10.1393	12.3274	1.4	1.4	0.9	0.9	0.2	0.2
0.546	10.1895	10.1735	12.3916	1.4	1.4	0.9	0.9	0.2	0.2
0.547	10.2226	10.2092	12.4554	1.4	1.4	0.9	0.9	0.2	0.2
0.548	10.2573	10.2474	12.519	1.4	1.4	0.9	0.9	0.2	0.2
0.549	10.2911	10.2844	12.5829	1.4	1.4	0.9	0.9	0.2	0.2
0.55	10.32	10.3146	12.6438	1.4	1.4	0.9	0.9	0.2	0.2
0.551	10.3453	10.3415	12.7018	1.4	1.4	0.9	0.9	0.2	0.2
0.552	10.3647	10.3626	12.7512	1.4	1.4	0.9	0.9	0.2	0.2
0.553	10.375	10.3734	12.7864	1.4	1.4	0.9	0.9	0.2	0.2
0.554	10.3785	10.3777	12.81	1.4	1.4	0.9	0.9	0.2	0.2
0.555	10.3779	10.3781	12.8263	1.4	1.4	0.9	0.9	0.2	0.2
0.556	10.3687	10.3709	12.8296	1.4	1.4	0.9	0.9	0.2	0.2
0.557	10.348	10.352	12.8136	1.4	1.4	0.9	0.9	0.2	0.2
0.558	10.3219	10.3273	12.785	1.4	1.4	0.9	0.9	0.2	0.2
0.559	10.2855	10.2925	12.7401	1.4	1.4	0.9	0.9	0.2	0.2
0.56	10.2338	10.2432	12.6741	1.4	1.4	0.9	0.9	0.2	0.2
0.561	10.176	10.1886	12.593	1.4	1.4	0.9	0.9	0.2	0.2
0.562	10.1128	10.1278	12.4997	1.4	1.4	0.9	0.9	0.2	0.2
0.563	10.0425	10.0593	12.3947	1.4	1.4	0.9	0.9	0.2	0.2
0.564	9.9636	9.9821	12.2754	1.4	1.4	0.9	0.9	0.2	0.2
0.565	9.8739	9.8934	12.1384	1.4	1.4	0.9	0.9	0.2	0.2
0.566	9.7775	9.7987	11.9863	1.4	1.4	0.9	0.9	0.2	0.2
0.567	9.6755	9.6985	11.8203	1.4	1.4	0.9	0.9	0.2	0.2
0.568	9.5681	9.5917	11.6411	1.4	1.4	0.9	0.9	0.2	0.2
0.569	9.4561	9.4802	11.4529	1.4	1.4	0.9	0.9	0.2	0.2
0.57	9.3383	9.3631	11.2538	1.4	1.4	0.9	0.9	0.2	0.2
0.571	9.2206	9.2456	11.0495	1.4	1.4	0.9	0.9	0.2	0.2
0.572	9.0999	9.1245	10.8399	1.4	1.4	0.9	0.9	0.2	0.2
0.573	8.9759	8.9998	10.6253	1.4	1.4	0.9	0.9	0.2	0.2
0.574	8.8553	8.8787	10.4127	1.4	1.4	0.9	0.9	0.2	0.2
0.575	8.7423	8.7657	10.2089	1.4	1.4	0.9	0.9	0.2	0.2
0.576	8.638	8.6611	10.0158	1.4	1.4	0.9	0.9	0.2	0.2
0.577	8.5417	8.5655	9.832	1.4	1.4	0.9	0.9	0.2	0.2
0.578	8.4478	8.4721	9.6536	1.4	1.4	0.9	0.9	0.2	0.2
0.579	8.3548	8.3791	9.48	1.4	1.4	0.9	0.9	0.2	0.2
0.58	8.2688	8.2936	9.3181	1.4	1.4	0.9	0.9	0.2	0.2
0.581	8.1945	8.2195	9.1715	1.4	1.4	0.9	0.9	0.2	0.2
0.582	8.1204	8.1452	9.0285	1.4	1.4	0.9	0.9	0.2	0.2
0.583	8.048	8.0732	8.893	1.4	1.4	0.9	0.9	0.2	0.2
0.584	7.9806	8.0062	8.7685	1.4	1.4	0.9	0.9	0.2	0.2
0.585	7.9175	7.9432	8.6517	1.4	1.4	0.9	0.9	0.2	0.2
0.586	7.8556	7.8811	8.5406	1.4	1.4	0.9	0.9	0.2	0.2
0.587	7.7994	7.8241	8.4378	1.4	1.4	0.9	0.9	0.2	0.2
0.588	7.7434	7.7678	8.3372	1.4	1.4	0.9	0.9	0.2	0.2
0.589	7.6951	7.7202	8.2479	1.4	1.4	0.9	0.9	0.2	0.2
0.59	7.6557	7.682	8.1705	1.4	1.4	0.9	0.9	0.2	0.2
0.591	7.6222	7.6492	8.1017	1.4	1.4	0.9	0.9	0.2	0.2
0.592	7.5894	7.6166	8.0367	1.4	1.4	0.9	0.9	0.2	0.2
0.593	7.5597	7.5869	7.9772	1.4	1.4	0.9	0.9	0.2	0.2
0.594	7.5368	7.5636	7.9269	1.4	1.4	0.9	0.9	0.2	0.2
0.595	7.5201	7.5468	7.8868	1.4	1.4	0.9	0.9	0.2	0.2
0.596	7.4986	7.5255	7.846	1.4	1.4	0.9	0.9	0.2	0.2
0.597	7.4782	7.5053	7.8105	1.4	1.4	0.9	0.9	0.2	0.2
0.598	7.4579	7.4853	7.7786	1.4	1.4	0.9	0.9	0.2	0.2
0.599	7.4388	7.4664	7.7475	1.4	1.4	0.9	0.9	0.2	0.2
0.6	7.4215	7.449	7.7173	1.4	1.4	0.9	0.9	0.2	0.2
0.601	7.401	7.4279	7.6834	1.4	1.4	0.9	0.9	0.2	0.2
0.602	7.3754	7.4023	7.6414	1.4	1.4	0.9	0.9	0.2	0.2
0.603	7.3543	7.3815	7.6009	1.4	1.4	0.9	0.9	0.2	0.2
0.604	7.3367	7.3636	7.5616	1.4	1.4	0.9	0.9	0.2	0.2
0.605	7.3185	7.3448	7.5188	1.4	1.4	0.9	0.9	0.2	0.2
0.606	7.2966	7.3224	7.4686	1.4	1.4	0.9	0.9	0.2	0.2
0.607	7.27	7.2956	7.4094	1.4	1.4	0.9	0.9	0.2	0.2
0.608	7.2404	7.2662	7.3445	1.4	1.4	0.9	0.9	0.2	0.2
0.609	7.2099	7.2365	7.2774	1.4	1.4	0.9	0.9	0.2	0.2
0.61	7.1798	7.2074	7.2092	1.4	1.4	0.9	0.9	0.2	0.2
0.611	7.1424	7.1702	7.1322	1.4	1.4	0.9	0.9	0.2	0.2
0.612	7.101	7.1287	7.0497	1.4	1.4	0.9	0.9	0.2	0.2
0.613	7.0621	7.0896	6.9672	1.4	1.4	0.9	0.9	0.2	0.2
0.614	7.0225	7.0493	6.8821	1.4	1.4	0.9	0.9	0.2	0.2
0.615	6.9793	7.005	6.7935	1.4	1.4	0.9	0.9	0.2	0.2
0.616	6.9361	6.9608	6.7041	1.4	1.4	0.9	0.9	0.2	0.2
0.617	6.8969	6.9208	6.6178	1.4	1.4	0.9	0.9	0.2	0.2
0.618	6.8605	6.8839	6.5354	1.4	1.4	0.9	0.9	0.2	0.2
0.619	6.8246	6.8482	6.4555	1.4	1.4	0.9	0.9	0.2	0.2
0.62	6.7884	6.812	6.3781	1.4	1.4	0.9	0.9	0.2	0.2
0.621	6.7518	6.7755	6.3009	1.4	1.4	0.9	0.9	0.2	0.2
0.622	6.7195	6.7436	6.2321	1.4	1.4	0.9	0.9	0.2	0.2
0.623	6.6949	6.7199	6.1768	1.4	1.4	0.9	0.9	0.2	0.2
0.624	6.6755	6.7009	6.1292	1.4	1.4	0.9	0.9	0.2	0.2
0.625	6.6565	6.6816	6.0844	1.4	1.4	0.9	0.9	0.2	0.2
0.626	6.6443	6.6688	6.0484	1.4	1.4	0.9	0.9	0.2	0.2
0.627	6.6353	6.6595	6.0189	1.4	1.4	0.9	0.9	0.2	0.2
0.628	6.6262	6.6502	5.9943	1.4	1.4	0.9	0.9	0.2	0.2
0.629	6.6191	6.6427	5.9775	1.4	1.4	0.9	0.9	0.2	0.2
0.63	6.6188	6.6422	5.9709	1.4	1.4	0.9	0.9	0.2	0.2
0.631	6.6227	6.6463	5.9694	1.4	1.4	0.9	0.9	0.2	0.2
0.632	6.6237	6.6478	5.9652	1.4	1.4	0.9	0.9	0.2	0.2
0.633	6.6186	6.6418	5.9533	1.4	1.4	0.9	0.9	0.2	0.2
0.634	6.6072	6.6295	5.9342	1.4	1.4	0.9	0.9	0.2	0.2
0.635	6.59	6.6119	5.9043	1.4	1.4	0.9	0.9	0.2	0.2
0.636	6.5688	6.5905	5.8666	1.4	1.4	0.9	0.9	0.2	0.2
0.637	6.5454	6.5675	5.8192	1.4	1.4	0.9	0.9	0.2	0.2
0.638	6.5178	6.5397	5.7577	1.4	1.4	0.9	0.9	0.2	0.2
0.639	6.4861	6.5073	5.6848	1.4	1.4	0.9	0.9	0.2	0.2
0.64	6.4465	6.4663	5.5956	1.4	1.4	0.9	0.9	0.2	0.2
0.641	6.4019	6.421	5.4955	1.4	1.4	0.9	0.9	0.2	0.2
0.642	6.3566	6.3757	5.3901	1.4	1.4	0.9	0.9	0.2	0.2
0.643	6.3127	6.3315	5.2794	1.4	1.4	0.9	0.9	0.2	0.2
0.644	6.2719	6.2904	5.167	1.4	1.4	0.9	0.9	0.2	0.2
0.645	6.2291	6.2473	5.0492	1.4	1.4	0.9	0.9	0.2	0.2
0.646	6.183	6.2006	4.9247	1.4	1.4	0.9	0.9	0.2	0.2
0.647	6.1365	6.1533	4.8001	1.4	1.4	0.9	0.9	0.2	0.2
0.648	6.0918	6.109	4.6823	1.4	1.4	0.9	0.9	0.2	0.2
0.649	6.0491	6.0663	4.5717	1.4	1.4	0.9	0.9	0.2	0.2
0.65	6.0113	6.0283	4.4703	1.4	1.4	0.9	0.9	0.2	0.2
0.651	5.9793	5.9958	4.3786	1.4	1.4	0.9	0.9	0.2	0.2
0.652	5.9516	5.9663	4.2976	1.4	1.4	0.9	0.9	0.2	0.2
0.653	5.9296	5.9424	4.232	1.4	1.4	0.9	0.9	0.2	0.2
0.654	5.9087	5.9194	4.1707	1.4	1.4	0.9	0.9	0.2	0.2
0.655	5.8932	5.9022	4.1167	1.4	1.4	0.9	0.9	0.2	0.2
0.656	5.8852	5.893	4.0711	1.4	1.4	0.9	0.9	0.2	0.2
0.657	5.8769	5.8828	4.0244	1.4	1.4	0.9	0.9	0.2	0.2
0.658	5.8674	5.8709	3.9748	1.4	1.4	0.9	0.9	0.2	0.2
0.659	5.8575	5.8583	3.9193	1.4	1.4	0.9	0.9	0.2	0.2
0.66	5.8447	5.8435	3.8559	1.4	1.4	0.9	0.9	0.2	0.2
0.661	5.8297	5.8266	3.786	1.4	1.4	0.9	0.9	0.2	0.2
0.662	5.8101	5.8045	3.7071	1.4	1.4	0.9	0.9	0.2	0.2
0.663	5.7896	5.7808	3.6222	1.4	1.4	0.9	0.9	0.2	0.2
0.664	5.7682	5.7558	3.5319	1.4	1.4	0.9	0.9	0.2	0.2
0.665	5.7451	5.7283	3.4371	1.4	1.4	0.9	0.9	0.2	0.2
0.666	5.7225	5.7008	3.3399	1.4	1.4	0.9	0.9	0.2	0.2
0.667	5.7056	5.6789	3.2498	1.4	1.4	0.9	0.9	0.2	0.2
0.668	5.6936	5.6611	3.1623	1.4	1.4	0.9	0.9	0.2	0.2
0.669	5.6895	5.6508	3.0828	1.4	1.4	0.9	0.9	0.2	0.2
0.67	5.6949	5.6495	3.017	1.4	1.4	0.9	0.9	0.2	0.2
0.671	5.7027	5.6497	2.9576	1.4	1.4	0.9	0.9	0.2	0.2
0.672	5.7146	5.6534	2.9045	1.4	1.4	0.9	0.9	0.2	0.2
0.673	5.7348	5.665	2.8613	1.4	1.4	0.9	0.9	0.2	0.2
0.674	5.7583	5.6799	2.8235	1.4	1.4	0.9	0.9	0.2	0.2
0.675	5.783	5.6953	2.788	1.4	1.4	0.9	0.9	0.2	0.2
0.676	5.8162	5.7182	2.7623	1.4	1.4	0.9	0.9	0.2	0.2
0.677	5.8544	5.7457	2.7422	1.4	1.4	0.9	0.9	0.2	0.2
0.678	5.8924	5.7728	2.723	1.4	1.4	0.9	0.9	0.2	0.2
0.679	5.934	5.8025	2.706	1.4	1.4	0.9	0.9	0.2	0.2
0.68	5.9797	5.836	2.694	1.4	1.4	0.9	0.9	0.2	0.2
0.681	6.032	5.8759	2.6941	1.4	1.4	0.9	0.9	0.2	0.2
0.682	6.0905	5.9224	2.7055	1.4	1.4	0.9	0.9	0.2	0.2
0.683	6.1574	5.9782	2.7349	1.4	1.4	0.9	0.9	0.2	0.2
0.684	6.2314	6.0419	2.7872	1.4	1.4	0.9	0.9	0.2	0.2
0.685	6.3098	6.1108	2.863	1.4	1.4	0.9	0.9	0.2	0.2
0.686	6.3918	6.1852	2.9662	1.4	1.4	0.9	0.9	0.2	0.2
0.687	6.4815	6.2694	3.1071	1.4	1.4	0.9	0.9	0.2	0.2
0.688	6.5776	6.3626	3.2897	1.4	1.4	0.9	0.9	0.2	0.2
0.689	6.6819	6.4669	3.5185	1.4	1.4	0.9	0.9	0.2	0.2
0.69	6.8025	6.5897	3.8078	1.4	1.4	0.9	0.9	0.2	0.2
0.691	6.9376	6.7291	4.158	1.4	1.4	0.9	0.9	0.2	0.2
0.692	7.0942	6.8914	4.5764	1.4	1.4	0.9	0.9	0.2	0.2
0.693	7.2793	7.0827	5.0692	1.4	1.4	0.9	0.9	0.2	0.2
0.694	7.4964	7.3068	5.641	1.4	1.4	0.9	0.9	0.2	0.2
0.695	7.7504	7.5681	6.2925	1.4	1.4	0.9	0.9	0.2	0.2
0.696	8.0439	7.8688	7.0209	1.4	1.4	0.9	0.9	0.2	0.2
0.697	8.3832	8.2151	7.8269	1.4	1.4	0.9	0.9	0.2	0.2
0.698	8.7683	8.6065	8.7017	1.4	1.4	0.9	0.9	0.2	0.2
0.699	9.2006	9.0438	9.6405	1.4	1.4	0.9	0.9	0.2	0.2
0.7	9.6759	9.5239	10.6301	1.4	1.4	0.9	0.9	0.2	0.2
0.701	10.1904	10.0432	11.6587	1.4	1.4	0.9	0.9	0.2	0.2
0.702	10.7396	10.5974	12.7131	1.4	1.4	0.9	0.9	0.2	0.2
0.703	11.3171	11.1799	13.7809	1.4	1.4	0.9	0.9	0.2	0.2
0.704	11.9187	11.7861	14.8552	1.4	1.4	0.9	0.9	0.2	0.2
0.705	12.5373	12.4097	15.9239	1.4	1.4	0.9	0.9	0.2	0.2
0.706	13.1681	13.0448	16.9794	1.4	1.4	0.9	0.9	0.2	0.2
0.707	13.8065	13.6871	18.0161	1.4	1.4	0.9	0.9	0.2	0.2
0.708	14.4493	14.334	19.0318	1.4	1.4	0.9	0.9	0.2	0.2
0.709	15.0925	14.981	20.0243	1.4	1.4	0.9	0.9	0.2	0.2
0.71	15.7348	15.6269	20.9934	1.4	1.4	0.9	0.9	0.2	0.2
0.711	16.3793	16.2749	21.9417	1.4	1.4	0.9	0.9	0.2	0.2
0.712	17.0254	16.9241	22.8704	1.4	1.4	0.9	0.9	0.2	0.2
0.713	17.674	17.5752	23.786	1.4	1.4	0.9	0.9	0.2	0.2
0.714	18.3231	18.2261	24.6849	1.4	1.4	0.9	0.9	0.2	0.2
0.715	18.9743	18.8782	25.5676	1.4	1.4	0.9	0.9	0.2	0.2
0.716	19.6284	19.5323	26.4375	1.4	1.4	0.9	0.9	0.2	0.2
0.717	20.2843	20.1872	27.2961	1.4	1.4	0.9	0.9	0.2	0.2
0.718	20.9396	20.8412	28.1413	1.4	1.4	0.9	0.9	0.2	0.2
0.719	21.5925	21.4928	28.9718	1.4	1.4	0.9	0.9	0.2	0.2
0.72	22.2437	22.1417	29.789	1.4	1.4	0.9	0.9	0.2	0.2
0.721	22.8918	22.7876	30.5913	1.4	1.4	0.9	0.9	0.2	0.2
0.722	23.5353	23.4292	31.3784	1.4	1.4	0.9	0.9	0.2	0.2
0.723	24.1725	24.0639	32.1493	1.4	1.4	0.9	0.9	0.2	0.2
0.724	24.8018	24.6907	32.9019	1.4	1.4	0.9	0.9	0.2	0.2
0.725	25.4213	25.3081	33.6341	1.4	1.4	0.9	0.9	0.2	0.2
0.726	26.0291	25.914	34.3455	1.4	1.4	0.9	0.9	0.2	0.2
0.727	26.624	26.5069	35.0366	1.4	1.4	0.9	0.9	0.2	0.2
0.728	27.2045	27.0848	35.7043	1.4	1.4	0.9	0.9	0.2	0.2
0.729	27.7684	27.6452	36.3458	1.4	1.4	0.9	0.9	0.2	0.2
0.73	28.3139	28.187	36.9619	1.4	1.4	0.9	0.9	0.2	0.2
0.731	28.8408	28.7101	37.5521	1.4	1.4	0.9	0.9	0.2	0.2
0.732	29.3484	29.2137	38.1172	1.4	1.4	0.9	0.9	0.2	0.2
0.733	29.8349	29.6962	38.6555	1.4	1.4	0.9	0.9	0.2	0.2
0.734	30.2993	30.157	39.1667	1.4	1.4	0.9	0.9	0.2	0.2
0.735	30.7427	30.5972	39.6523	1.4	1.4	0.9	0.9	0.2	0.2
0.736	31.1645	31.0159	40.1131	1.4	1.4	0.9	0.9	0.2	0.2
0.737	31.5636	31.412	40.5476	1.4	1.4	0.9	0.9	0.2	0.2
0.738	31.94	31.7859	40.955	1.4	1.4	0.9	0.9	0.2	0.2
0.739	32.2941	32.1385	41.3369	1.4	1.4	0.9	0.9	0.2	0.2
0.74	32.626	32.4696	41.6955	1.4	1.4	0.9	0.9	0.2	0.2
0.741	32.9349	32.7787	42.0305	1.4	1.4	0.9	0.9	0.2	0.2
0.742	33.2222	33.0666	42.3423	1.4	1.4	0.9	0.9	0.2	0.2
0.743	33.4864	33.3321	42.6301	1.4	1.4	0.9	0.9	0.2	0.2
0.744	33.7284	33.5764	42.8952	1.4	1.4	0.9	0.9	0.2	0.2
0.745	33.9513	33.8022	43.1418	1.4	1.4	0.9	0.9	0.2	0.2
0.746	34.155	34.0092	43.3706	1.4	1.4	0.9	0.9	0.2	0.2
0.747	34.339	34.1973	43.5807	1.4	1.4	0.9	0.9	0.2	0.2
0.748	34.504	34.3681	43.7728	1.4	1.4	0.9	0.9	0.2	0.2
0.749	34.6532	34.5238	43.95	1.4	1.4	0.9	0.9	0.2	0.2
0.75	34.7858	34.6632	44.1113	1.4	1.4	0.9	0.9	0.2	0.2
0.751	34.9027	34.7865	44.2558	1.4	1.4	0.9	0.9	0.2	0.2
0.752	35.0063	34.8969	44.386	1.4	1.4	0.9	0.9	0.2	0.2
0.753	35.0968	34.9948	44.5033	1.4	1.4	0.9	0.9	0.2	0.2
0.754	35.1749	35.0812	44.6089	1.4	1.4	0.9	0.9	0.2	0.2
0.755	35.2436	35.1583	44.7049	1.4	1.4	0.9	0.9	0.2	0.2
0.756	35.3043	35.2272	44.7915	1.4	1.4	0.9	0.9	0.2	0.2
0.757	35.356	35.2873	44.8686	1.4	1.4	0.9	0.9	0.2	0.2
0.758	35.4009	35.3405	44.9381	1.4	1.4	0.9	0.9	0.2	0.2
0.759	35.4409	35.3884	45.002	1.4	1.4	0.9	0.9	0.2	0.2
0.76	35.4755	35.4304	45.0597	1.4	1.4	0.9	0.9	0.2	0.2
0.761	35.5049	35.4672	45.1119	1.4	1.4	0.9	0.9	0.2	0.2
0.762	35.5278	35.4978	45.1576	1.4	1.4	0.9	0.9	0.2	0.2
0.763	35.5459	35.5232	45.1981	1.4	1.4	0.9	0.9	0.2	0.2
0.764	35.5597	35.5435	45.2334	1.4	1.4	0.9	0.9	0.2	0.2
0.765	35.5699	35.56	45.2649	1.4	1.4	0.9	0.9	0.2	0.2
0.766	35.5759	35.5725	45.2932	1.4	1.4	0.9	0.9	0.2	0.2
0.767	35.5768	35.5801	45.3177	1.4	1.4	0.9	0.9	0.2	0.2
0.768	35.5747	35.5851	45.3399	1.4	1.4	0.9	0.9	0.2	0.2
0.769	35.5714	35.5888	45.3606	1.4	1.4	0.9	0.9	0.2	0.2
0.77	35.5662	35.5905	45.3792	1.4	1.4	0.9	0.9	0.2	0.2
0.771	35.559	35.5902	45.3956	1.4	1.4	0.9	0.9	0.2	0.2
0.772	35.5528	35.5903	45.4119	1.4	1.4	0.9	0.9	0.2	0.2
0.773	35.5464	35.5898	45.4272	1.4	1.4	0.9	0.9	0.2	0.2
0.774	35.5396	35.5886	45.4418	1.4	1.4	0.9	0.9	0.2	0.2
0.775	35.5326	35.5866	45.4548	1.4	1.4	0.9	0.9	0.2	0.2
0.776	35.5243	35.5831	45.4665	1.4	1.4	0.9	0.9	0.2	0.2
0.777	35.5169	35.58	45.4787	1.4	1.4	0.9	0.9	0.2	0.2
0.778	35.5115	35.5784	45.4919	1.4	1.4	0.9	0.9	0.2	0.2
0.779	35.5068	35.5772	45.5056	1.4	1.4	0.9	0.9	0.2	0.2
0.78	35.5016	35.5748	45.5185	1.4	1.4	0.9	0.9	0.2	0.2
0.781	35.4969	35.5729	45.5313	1.4	1.4	0.9	0.9	0.2	0.2
0.782	35.4953	35.5735	45.5452	1.4	1.4	0.9	0.9	0.2	0.2
0.783	35.4945	35.5747	45.5592	1.4	1.4	0.9	0.9	0.2	0.2
0.784	35.4932	35.5752	45.5731	1.4	1.4	0.9	0.9	0.2	0.2
0.785	35.4917	35.5759	45.5859	1.4	1.4	0.9	0.9	0.2	0.2
0.786	35.4929	35.5787	45.5999	1.4	1.4	0.9	0.9	0.2	0.2
0.787	35.4943	35.5819	45.6143	1.4	1.4	0.9	0.9	0.2	0.2
0.788	35.4955	35.585	45.6291	1.4	1.4	0.9	0.9	0.2	0.2
0.789	35.4969	35.5882	45.6439	1.4	1.4	0.9	0.9	0.2	0.2
0.79	35.4988	35.5918	45.6606	1.4	1.4	0.9	0.9	0.2	0.2
0.791	35.5017	35.5966	45.6791	1.4	1.4	0.9	0.9	0.2	0.2
0.792	35.5037	35.6002	45.6957	1.4	1.4	0.9	0.9	0.2	0.2
0.793	35.5064	35.6036	45.7118	1.4	1.4	0.9	0.9	0.2	0.2
0.794	35.5106	35.6084	45.7289	1.4	1.4	0.9	0.9	0.2	0.2
0.795	35.5147	35.6132	45.7472	1.4	1.4	0.9	0.9	0.2	0.2
0.796	35.5205	35.6189	45.7659	1.4	1.4	0.9	0.9	0.2	0.2
0.797	35.5262	35.6244	45.7843	1.4	1.4	0.9	0.9	0.2	0.2
0.798	35.532	35.6306	45.8018	1.4	1.4	0.9	0.9	0.2	0.2
0.799	35.5369	35.6363	45.8185	1.4	1.4	0.9	0.9	0.2	0.2
0.8	35.5425	35.6424	45.836	1.4	1.4	0.9	0.9	0.2	0.2
0.801	35.5487	35.6491	45.8544	1.4	1.4	0.9	0.9	0.2	0.2
0.802	35.5549	35.6557	45.8723	1.4	1.4	0.9	0.9	0.2	0.2
0.803	35.5615	35.6632	45.891	1.4	1.4	0.9	0.9	0.2	0.2
0.804	35.5686	35.6715	45.911	1.4	1.4	0.9	0.9	0.2	0.2
0.805	35.576	35.68	45.931	1.4	1.4	0.9	0.9	0.2	0.2
0.806	35.5808	35.6852	45.9484	1.4	1.4	0.9	0.9	0.2	0.2
0.807	35.587	35.6912	45.9669	1.4	1.4	0.9	0.9	0.2	0.2
0.808	35.5948	35.6983	45.9861	1.4	1.4	0.9	0.9	0.2	0.2
0.809	35.6013	35.7046	46.0054	1.4	1.4	0.9	0.9	0.2	0.2
0.81	35.6087	35.7118	46.0236	1.4	1.4	0.9	0.9	0.2	0.2
0.811	35.617	35.7201	46.0407	1.4	1.4	0.9	0.9	0.2	0.2
0.812	35.6257	35.7292	46.0578	1.4	1.4	0.9	0.9	0.2	0.2
0.813	35.6333	35.737	46.0743	1.4	1.4	0.9	0.9	0.2	0.2
0.814	35.6415	35.7451	46.0902	1.4	1.4	0.9	0.9	0.2	0.2
0.815	35.6501	35.7535	46.1056	1.4	1.4	0.9	0.9	0.2	0.2
0.816	35.6582	35.7621	46.1207	1.4	1.4	0.9	0.9	0.2	0.2
0.817	35.6669	35.7716	46.1375	1.4	1.4	0.9	0.9	0.2	0.2
0.818	35.6764	35.7818	46.1553	1.4	1.4	0.9	0.9	0.2	0.2
0.819	35.6861	35.7922	46.1734	1.4	1.4	0.9	0.9	0.2	0.2
0.82	35.6931	35.7998	46.1901	1.4	1.4	0.9	0.9	0.2	0.2
0.821	35.6996	35.8066	46.2057	1.4	1.4	0.9	0.9	0.2	0.2
0.822	35.707	35.8145	46.2212	1.4	1.4	0.9	0.9	0.2	0.2
0.823	35.7139	35.8223	46.238	1.4	1.4	0.9	0.9	0.2	0.2
0.824	35.7204	35.8298	46.2542	1.4	1.4	0.9	0.9	0.2	0.2
0.825	35.7259	35.8362	46.2684	1.4	1.4	0.9	0.9	0.2	0.2
0.826	35.7322	35.8428	46.2826	1.4	1.4	0.9	0.9	0.2	0.2
0.827	35.7387	35.8487	46.2961	1.4	1.4	0.9	0.9	0.2	0.2
0.828	35.7454	35.8545	46.3096	1.4	1.4	0.9	0.9	0.2	0.2
0.829	35.7536	35.8619	46.3237	1.4	1.4	0.9	0.9	0.2	0.2
0.83	35.7628	35.8706	46.3394	1.4	1.4	0.9	0.9	0.2	0.2
0.831	35.773	35.8802	46.3558	1.4	1.4	0.9	0.9	0.2	0.2
0.832	35.783	35.8898	46.3714	1.4	1.4	0.9	0.9	0.2	0.2
0.833	35.7928	35.8996	46.3864	1.4	1.4	0.9	0.9	0.2	0.2
0.834	35.8002	35.9077	46.4005	1.4	1.4	0.9	0.9	0.2	0.2
0.835	35.8062	35.9153	46.4146	1.4	1.4	0.9	0.9	0.2	0.2
0.836	35.8136	35.9237	46.4286	1.4	1.4	0.9	0.9	0.2	0.2
0.837	35.8188	35.9302	46.4419	1.4	1.4	0.9	0.9	0.2	0.2
0.838	35.821	35.9339	46.4524	1.4	1.4	0.9	0.9	0.2	0.2
0.839	35.8215	35.9355	46.4603	1.4	1.4	0.9	0.9	0.2	0.2
0.84	35.8236	35.9383	46.4689	1.4	1.4	0.9	0.9	0.2	0.2
0.841	35.8261	35.9413	46.4776	1.4	1.4	0.9	0.9	0.2	0.2
0.842	35.8295	35.9451	46.4866	1.4	1.4	0.9	0.9	0.2	0.2
0.843	35.8329	35.9496	46.4961	1.4	1.4	0.9	0.9	0.2	0.2
0.844	35.8379	35.9552	46.5078	1.4	1.4	0.9	0.9	0.2	0.2
0.845	35.8441	35.9616	46.5202	1.4	1.4	0.9	0.9	0.2	0.2
0.846	35.8501	35.9681	46.5324	1.4	1.4	0.9	0.9	0.2	0.2
0.847	35.857	35.976	46.5455	1.4	1.4	0.9	0.9	0.2	0.2
0.848	35.863	35.9837	46.5587	1.4	1.4	0.9	0.9	0.2	0.2
0.849	35.8682	35.9906	46.571	1.4	1.4	0.9	0.9	0.2	0.2
0.85	35.872	35.9949	46.5805	1.4	1.4	0.9	0.9	0.2	0.2
0.851	35.8734	35.9974	46.5887	1.4	1.4	0.9	0.9	0.2	0.2
0.852	35.8751	35.9998	46.5969	1.4	1.4	0.9	0.9	0.2	0.2
0.853	35.8789	36.0036	46.6065	1.4	1.4	0.9	0.9	0.2	0.2
0.854	35.8827	36.0074	46.6161	1.4	1.4	0.9	0.9	0.2	0.2
0.855	35.8846	36.0094	46.6238	1.4	1.4	0.9	0.9	0.2	0.2
0.856	35.8846	36.0096	46.6298	1.4	1.4	0.9	0.9	0.2	0.2
0.857	35.8862	36.012	46.6382	1.4	1.4	0.9	0.9	0.2	0.2
0.858	35.8908	36.0163	46.6481	1.4	1.4	0.9	0.9	0.2	0.2
0.859	35.8965	36.0211	46.6578	1.4	1.4	0.9	0.9	0.2	0.2
0.86	35.9031	36.0267	46.6675	1.4	1.4	0.9	0.9	0.2	0.2
0.861	35.9089	36.0328	46.6767	1.4	1.4	0.9	0.9	0.2	0.2
0.862	35.9119	36.0368	46.6837	1.4	1.4	0.9	0.9	0.2	0.2
0.863	35.9112	36.0377	46.6875	1.4	1.4	0.9	0.9	0.2	0.2
0.864	35.9107	36.0374	46.6912	1.4	1.4	0.9	0.9	0.2	0.2
0.865	35.9134	36.0404	46.6974	1.4	1.4	0.9	0.9	0.2	0.2
0.866	35.9181	36.0456	46.7057	1.4	1.4	0.9	0.9	0.2	0.2
0.867	35.921	36.0487	46.7136	1.4	1.4	0.9	0.9	0.2	0.2
0.868	35.9198	36.0481	46.7197	1.4	1.4	0.9	0.9	0.2	0.2
0.869	35.9172	36.0462	46.7244	1.4	1.4	0.9	0.9	0.2	0.2
0.87	35.9161	36.0456	46.7291	1.4	1.4	0.9	0.9	0.2	0.2
0.871	35.9192	36.0491	46.738	1.4	1.4	0.9	0.9	0.2	0.2
0.872	35.922	36.0512	46.7451	1.4	1.4	0.9	0.9	0.2	0.2
0.873	35.9243	36.0526	46.7508	1.4	1.4	0.9	0.9	0.2	0.2
0.874	35.9261	36.0545	46.757	1.4	1.4	0.9	0.9	0.2	0.2
0.875	35.9263	36.0557	46.7633	1.4	1.4	0.9	0.9	0.2	0.2
0.876	35.9248	36.0554	46.7683	1.4	1.4	0.9	0.9	0.2	0.2
0.877	35.9228	36.0542	46.7721	1.4	1.4	0.9	0.9	0.2	0.2
0.878	35.9252	36.0571	46.7787	1.4	1.4	0.9	0.9	0.2	0.2
0.879	35.9285	36.0613	46.7852	1.4	1.4	0.9	0.9	0.2	0.2
0.88	35.9301	36.0639	46.7897	1.4	1.4	0.9	0.9	0.2	0.2
0.881	35.929	36.0635	46.7917	1.4	1.4	0.9	0.9	0.2	0.2
0.882	35.9291	36.0643	46.795	1.4	1.4	0.9	0.9	0.2	0.2
0.883	35.9308	36.0661	46.799	1.4	1.4	0.9	0.9	0.2	0.2
0.884	35.9332	36.0679	46.8032	1.4	1.4	0.9	0.9	0.2	0.2
0.885	35.9351	36.0694	46.8074	1.4	1.4	0.9	0.9	0.2	0.2
0.886	35.9354	36.0686	46.8096	1.4	1.4	0.9	0.9	0.2	0.2
0.887	35.9348	36.0671	46.8118	1.4	1.4	0.9	0.9	0.2	0.2
0.888	35.9345	36.0664	46.8151	1.4	1.4	0.9	0.9	0.2	0.2
0.889	35.9382	36.0689	46.8217	1.4	1.4	0.9	0.9	0.2	0.2
0.89	35.9418	36.0715	46.8281	1.4	1.4	0.9	0.9	0.2	0.2
0.891	35.9436	36.0731	46.8331	1.4	1.4	0.9	0.9	0.2	0.2
0.892	35.9471	36.078	46.8395	1.4	1.4	0.9	0.9	0.2	0.2
0.893	35.9488	36.081	46.8441	1.4	1.4	0.9	0.9	0.2	0.2
0.894	35.9498	36.0831	46.8479	1.4	1.4	0.9	0.9	0.2	0.2
0.895	35.9521	36.0861	46.853	1.4	1.4	0.9	0.9	0.2	0.2
0.896	35.9575	36.0912	46.8595	1.4	1.4	0.9	0.9	0.2	0.2
0.897	35.9601	36.0934	46.8634	1.4	1.4	0.9	0.9	0.2	0.2
0.898	35.9587	36.0918	46.8638	1.4	1.4	0.9	0.9	0.2	0.2
0.899	35.9562	36.0896	46.8636	1.4	1.4	0.9	0.9	0.2	0.2
0.9	35.955	36.0884	46.8662	1.4	1.4	0.9	0.9	0.2	0.2
0.901	35.9538	36.0872	46.8687	1.4	1.4	0.9	0.9	0.2	0.2
0.902	35.9516	36.0856	46.8687	1.4	1.4	0.9	0.9	0.2	0.2
0.903	35.9541	36.0878	46.8736	1.4	1.4	0.9	0.9	0.2	0.2
0.904	35.9555	36.0891	46.8777	1.4	1.4	0.9	0.9	0.2	0.2
0.905	35.9553	36.0892	46.8809	1.4	1.4	0.9	0.9	0.2	0.2
0.906	35.9538	36.0891	46.885	1.4	1.4	0.9	0.9	0.2	0.2
0.907	35.9554	36.0912	46.8895	1.4	1.4	0.9	0.9	0.2	0.2
0.908	35.9586	36.0936	46.8939	1.4	1.4	0.9	0.9	0.2	0.2
0.909	35.9615	36.0949	46.898	1.4	1.4	0.9	0.9	0.2	0.2
0.91	35.9696	36.1021	46.9055	1.4	1.4	0.9	0.9	0.2	0.2
0.911	35.9744	36.1073	46.9095	1.4	1.4	0.9	0.9	0.2	0.2
0.912	35.9749	36.1084	46.9098	1.4	1.4	0.9	0.9	0.2	0.2
0.913	35.9724	36.1051	46.9084	1.4	1.4	0.9	0.9	0.2	0.2
0.914	35.9717	36.103	46.9093	1.4	1.4	0.9	0.9	0.2	0.2
0.915	35.9716	36.1016	46.9097	1.4	1.4	0.9	0.9	0.2	0.2
0.916	35.9719	36.1008	46.9098	1.4	1.4	0.9	0.9	0.2	0.2
0.917	35.9722	36.099	46.9131	1.4	1.4	0.9	0.9	0.2	0.2
0.918	35.9733	36.0984	46.9156	1.4	1.4	0.9	0.9	0.2	0.2
0.919	35.9752	36.1	46.9194	1.4	1.4	0.9	0.9	0.2	0.2
0.92	35.978	36.1039	46.9263	1.4	1.4	0.9	0.9	0.2	0.2
0.921	35.9834	36.1099	46.9317	1.4	1.4	0.9	0.9	0.2	0.2
0.922	35.9835	36.1106	46.933	1.4	1.4	0.9	0.9	0.2	0.2
0.923	35.9797	36.1083	46.9322	1.4	1.4	0.9	0.9	0.2	0.2
0.924	35.9778	36.1091	46.9328	1.4	1.4	0.9	0.9	0.2	0.2
0.925	35.9744	36.108	46.9318	1.4	1.4	0.9	0.9	0.2	0.2
0.926	35.9679	36.102	46.9285	1.4	1.4	0.9	0.9	0.2	0.2
0.927	35.9599	36.0926	46.9242	1.4	1.4	0.9	0.9	0.2	0.2
0.928	35.9587	36.0905	46.9256	1.4	1.4	0.9	0.9	0.2	0.2
0.929	35.9592	36.0902	46.9258	1.4	1.4	0.9	0.9	0.2	0.2
0.93	35.9584	36.0892	46.9267	1.4	1.4	0.9	0.9	0.2	0.2
0.931	35.9551	36.0866	46.9314	1.4	1.4	0.9	0.9	0.2	0.2
0.932	35.9607	36.0918	46.9394	1.4	1.4	0.9	0.9	0.2	0.2
0.933	35.9678	36.0987	46.9481	1.4	1.4	0.9	0.9	0.2	0.2
0.934	35.9727	36.1038	46.9549	1.4	1.4	0.9	0.9	0.2	0.2
0.935	35.9738	36.1047	46.9564	1.4	1.4	0.9	0.9	0.2	0.2
0.936	35.9672	36.0996	46.9506	1.4	1.4	0.9	0.9	0.2	0.2
0.937	35.9597	36.0932	46.9423	1.4	1.4	0.9	0.9	0.2	0.2
0.938	35.955	36.0881	46.9348	1.4	1.4	0.9	0.9	0.2	0.2
0.939	35.9493	36.0813	46.9284	1.4	1.4	0.9	0.9	0.2	0.2
0.94	35.9402	36.0711	46.9189	1.4	1.4	0.9	0.9	0.2	0.2
0.941	35.9312	36.0611	46.9098	1.4	1.4	0.9	0.9	0.2	0.2
0.942	35.9255	36.0547	46.9045	1.4	1.4	0.9	0.9	0.2	0.2
0.943	35.9169	36.0462	46.8977	1.4	1.4	0.9	0.9	0.2	0.2
0.944	35.9056	36.0354	46.893	1.4	1.4	0.9	0.9	0.2	0.2
0.945	35.8949	36.0239	46.8902	1.4	1.4	0.9	0.9	0.2	0.2
0.946	35.8894	36.0149	46.8849	1.4	1.4	0.9	0.9	0.2	0.2
0.947	35.8794	36.0043	46.875	1.4	1.4	0.9	0.9	0.2	0.2
0.948	35.8679	35.9925	46.8637	1.4	1.4	0.9	0.9	0.2	0.2
0.949	35.8551	35.9789	46.8525	1.4	1.4	0.9	0.9	0.2	0.2
0.95	35.8356	35.96	46.8391	1.4	1.4	0.9	0.9	0.2	0.2
0.951	35.8231	35.9458	46.83	1.4	1.4	0.9	0.9	0.2	0.2
0.952	35.8104	35.9308	46.8211	1.4	1.4	0.9	0.9	0.2	0.2
0.953	35.7909	35.9105	46.8085	1.4	1.4	0.9	0.9	0.2	0.2
0.954	35.7748	35.8947	46.7976	1.4	1.4	0.9	0.9	0.2	0.2
0.955	35.7647	35.8835	46.7884	1.4	1.4	0.9	0.9	0.2	0.2
0.956	35.758	35.8751	46.7809	1.4	1.4	0.9	0.9	0.2	0.2
0.957	35.75	35.8669	46.773	1.4	1.4	0.9	0.9	0.2	0.2
0.958	35.7422	35.8588	46.7611	1.4	1.4	0.9	0.9	0.2	0.2
0.959	35.7322	35.8491	46.746	1.4	1.4	0.9	0.9	0.2	0.2
0.96	35.7217	35.8395	46.7302	1.4	1.4	0.9	0.9	0.2	0.2
0.961	35.712	35.832	46.717	1.4	1.4	0.9	0.9	0.2	0.2
0.962	35.7026	35.8242	46.705	1.4	1.4	0.9	0.9	0.2	0.2
0.963	35.6932	35.8146	46.6953	1.4	1.4	0.9	0.9	0.2	0.2
0.964	35.6811	35.8019	46.6872	1.4	1.4	0.9	0.9	0.2	0.2
0.965	35.6657	35.787	46.6777	1.4	1.4	0.9	0.9	0.2	0.2
0.966	35.656	35.7759	46.6745	1.4	1.4	0.9	0.9	0.2	0.2
0.967	35.6515	35.769	46.6751	1.4	1.4	0.9	0.9	0.2	0.2
0.968	35.654	35.769	46.6793	1.4	1.4	0.9	0.9	0.2	0.2
0.969	35.6604	35.7728	46.6848	1.4	1.4	0.9	0.9	0.2	0.2
0.97	35.6707	35.782	46.6945	1.4	1.4	0.9	0.9	0.2	0.2
0.971	35.6798	35.792	46.7057	1.4	1.4	0.9	0.9	0.2	0.2
0.972	35.684	35.7983	46.7136	1.4	1.4	0.9	0.9	0.2	0.2
0.973	35.683	35.7999	46.7202	1.4	1.4	0.9	0.9	0.2	0.2
0.974	35.681	35.7983	46.7252	1.4	1.4	0.9	0.9	0.2	0.2
0.975	35.6793	35.7952	46.7292	1.4	1.4	0.9	0.9	0.2	0.2
0.976	35.6732	35.7888	46.7292	1.4	1.4	0.9	0.9	0.2	0.2
0.977	35.6613	35.776	46.7255	1.4	1.4	0.9	0.9	0.2	0.2
0.978	35.6453	35.7605	46.7174	1.4	1.4	0.9	0.9	0.2	0.2
0.979	35.6284	35.745	46.7078	1.4	1.4	0.9	0.9	0.2	0.2
0.98	35.6262	35.7388	46.7076	1.4	1.4	0.9	0.9	0.2	0.2
0.981	35.6257	35.7377	46.7081	1.4	1.4	0.9	0.9	0.2	0.2
0.982	35.623	35.7351	46.707	1.4	1.4	0.9	0.9	0.2	0.2
0.983	35.6213	35.7334	46.7066	1.4	1.4	0.9	0.9	0.2	0.2
0.984	35.6267	35.7402	46.7093	1.4	1.4	0.9	0.9	0.2	0.2
0.985	35.6312	35.746	46.7125	1.4	1.4	0.9	0.9	0.2	0.2
0.986	35.6357	35.7507	46.7189	1.4	1.4	0.9	0.9	0.2	0.2
0.987	35.6439	35.7572	46.731	1.4	1.4	0.9	0.9	0.2	0.2
0.988	35.6545	35.7658	46.7504	1.4	1.4	0.9	0.9	0.2	0.2
0.989	35.664	35.7746	46.7703	1.4	1.4	0.9	0.9	0.2	0.2
0.99	35.6762	35.7875	46.7925	1.4	1.4	0.9	0.9	0.2	0.2
0.991	35.6889	35.8012	46.8122	1.4	1.4	0.9	0.9	0.2	0.2
0.992	35.6926	35.8036	46.8159	1.4	1.4	0.9	0.9	0.2	0.2
0.993	35.7108	35.8186	46.8337	1.4	1.4	0.9	0.9	0.2	0.2
0.994	35.7312	35.8361	46.8552	1.4	1.4	0.9	0.9	0.2	0.2
0.995	35.7457	35.8515	46.8743	1.4	1.4	0.9	0.9	0.2	0.2
0.996	35.7691	35.8768	46.8986	1.4	1.4	0.9	0.9	0.2	0.2
0.997	35.7889	35.8945	46.9143	1.4	1.4	0.9	0.9	0.2	0.2
0.998	35.8042	35.9097	46.9273	1.4	1.4	0.9	0.9	0.2	0.2
0.999	35.8107	35.9159	46.9349	1.4	1.4	0.9	0.9	0.2	0.2
1	35.8155	35.9172	46.9415	1.4	1.4	0.9	0.9	0.2	0.2
1.001	35.8221	35.9188	46.9522	1.4	1.4	0.9	0.9	0.2	0.2
1.002	35.8312	35.9255	46.9657	1.4	1.4	0.9	0.9	0.2	0.2
1.003	35.8389	35.9319	46.9687	1.4	1.4	0.9	0.9	0.2	0.2
1.004	35.8451	35.9374	46.9651	1.4	1.4	0.9	0.9	0.2	0.2
1.005	35.8447	35.9367	46.9559	1.4	1.4	0.9	0.9	0.2	0.2
1.006	35.8401	35.9299	46.9439	1.4	1.4	0.9	0.9	0.2	0.2
1.007	35.8552	35.9437	46.9567	1.4	1.4	0.9	0.9	0.2	0.2
1.008	35.8654	35.9552	46.971	1.4	1.4	0.9	0.9	0.2	0.2
1.009	35.8696	35.9624	46.9877	1.4	1.4	0.9	0.9	0.2	0.2
1.01	35.8805	35.9779	47.0112	1.4	1.4	0.9	0.9	0.2	0.2
1.011	35.8853	35.9851	47.0303	1.4	1.4	0.9	0.9	0.2	0.2
1.012	35.8892	35.9949	47.0529	1.4	1.4	0.9	0.9	0.2	0.2
1.013	35.8901	36	47.068	1.4	1.4	0.9	0.9	0.2	0.2
1.014	35.8921	36.0031	47.0796	1.4	1.4	0.9	0.9	0.2	0.2
1.015	35.8949	36.0093	47.0971	1.4	1.4	0.9	0.9	0.2	0.2
1.016	35.8968	36.0184	47.1148	1.4	1.4	0.9	0.9	0.2	0.2
1.017	35.8977	36.0285	47.1238	1.4	1.4	0.9	0.9	0.2	0.2
1.018	35.9001	36.0396	47.1275	1.4	1.4	0.9	0.9	0.2	0.2
1.019	35.9066	36.0514	47.1321	1.4	1.4	0.9	0.9	0.2	0.2
1.02	35.9168	36.0636	47.1402	1.4	1.4	0.9	0.9	0.2	0.2
1.021	35.9253	36.0729	47.1484	1.4	1.4	0.9	0.9	0.2	0.2
1.022	35.9273	36.0733	47.1533	1.4	1.4	0.9	0.9	0.2	0.2
1.023	35.9252	36.0672	47.1558	1.4	1.4	0.9	0.9	0.2	0.2
1.024	35.9272	36.0654	47.1595	1.4	1.4	0.9	0.9	0.2	0.2
1.025	35.9369	36.0715	47.1668	1.4	1.4	0.9	0.9	0.2	0.2
1.026	35.9492	36.0759	47.1731	1.4	1.4	0.9	0.9	0.2	0.2
1.027	35.9601	36.0755	47.1754	1.4	1.4	0.9	0.9	0.2	0.2
1.028	35.972	36.0793	47.1818	1.4	1.4	0.9	0.9	0.2	0.2
1.029	35.9858	36.0909	47.197	1.4	1.4	0.9	0.9	0.2	0.2
1.03	36.0017	36.1081	47.2119	1.4	1.4	0.9	0.9	0.2	0.2
1.031	36.0183	36.1272	47.2225	1.4	1.4	0.9	0.9	0.2	0.2
1.032	36.0352	36.1458	47.2324	1.4	1.4	0.9	0.9	0.2	0.2
1.033	36.0506	36.1636	47.2453	1.4	1.4	0.9	0.9	0.2	0.2
1.034	36.0622	36.178	47.26	1.4	1.4	0.9	0.9	0.2	0.2
1.035	36.0695	36.1849	47.2726	1.4	1.4	0.9	0.9	0.2	0.2
1.036	36.0731	36.1867	47.2856	1.4	1.4	0.9	0.9	0.2	0.2
1.037	36.07	36.1869	47.2988	1.4	1.4	0.9	0.9	0.2	0.2
1.038	36.0607	36.1823	47.3091	1.4	1.4	0.9	0.9	0.2	0.2
1.039	36.0483	36.1684	47.3162	1.4	1.4	0.9	0.9	0.2	0.2
1.04	36.039	36.1517	47.3219	1.4	1.4	0.9	0.9	0.2	0.2
1.041	36.0414	36.1457	47.3289	1.4	1.4	0.9	0.9	0.2	0.2
1.042	36.0539	36.1521	47.3386	1.4	1.4	0.9	0.9	0.2	0.2
1.043	36.07	36.162	47.3489	1.4	1.4	0.9	0.9	0.2	0.2
1.044	36.0847	36.1698	47.3555	1.4	1.4	0.9	0.9	0.2	0.2
1.045	36.0916	36.172	47.3559	1.4	1.4	0.9	0.9	0.2	0.2
1.046	36.0938	36.1745	47.3551	1.4	1.4	0.9	0.9	0.2	0.2
1.047	36.0999	36.1847	47.3581	1.4	1.4	0.9	0.9	0.2	0.2
1.048	36.1094	36.1997	47.3644	1.4	1.4	0.9	0.9	0.2	0.2
1.049	36.1158	36.2144	47.372	1.4	1.4	0.9	0.9	0.2	0.2
1.05	36.1174	36.2285	47.3792	1.4	1.4	0.9	0.9	0.2	0.2
1.051	36.1142	36.2399	47.3852	1.4	1.4	0.9	0.9	0.2	0.2
1.052	36.11	36.2472	47.3937	1.4	1.4	0.9	0.9	0.2	0.2
1.053	36.1097	36.2539	47.4072	1.4	1.4	0.9	0.9	0.2	0.2
1.054	36.1202	36.2695	47.4275	1.4	1.4	0.9	0.9	0.2	0.2
1.055	36.1401	36.2933	47.4502	1.4	1.4	0.9	0.9	0.2	0.2
1.056	36.1574	36.3139	47.4681	1.4	1.4	0.9	0.9	0.2	0.2
1.057	36.167	36.324	47.4808	1.4	1.4	0.9	0.9	0.2	0.2
1.058	36.1686	36.3207	47.4879	1.4	1.4	0.9	0.9	0.2	0.2
1.059	36.1618	36.3072	47.4889	1.4	1.4	0.9	0.9	0.2	0.2
1.06	36.1498	36.2908	47.4881	1.4	1.4	0.9	0.9	0.2	0.2
1.061	36.1382	36.2765	47.4879	1.4	1.4	0.9	0.9	0.2	0.2
1.062	36.1311	36.2686	47.4896	1.4	1.4	0.9	0.9	0.2	0.2
1.063	36.1283	36.2649	47.4912	1.4	1.4	0.9	0.9	0.2	0.2
1.064	36.1311	36.2638	47.4922	1.4	1.4	0.9	0.9	0.2	0.2
1.065	36.1381	36.2664	47.496	1.4	1.4	0.9	0.9	0.2	0.2
1.066	36.1465	36.2722	47.5046	1.4	1.4	0.9	0.9	0.2	0.2
1.067	36.1557	36.2803	47.5167	1.4	1.4	0.9	0.9	0.2	0.2
1.068	36.1643	36.2907	47.5299	1.4	1.4	0.9	0.9	0.2	0.2
1.069	36.1679	36.2998	47.5398	1.4	1.4	0.9	0.9	0.2	0.2
1.07	36.1668	36.3061	47.5462	1.4	1.4	0.9	0.9	0.2	0.2
1.071	36.1645	36.3087	47.5542	1.4	1.4	0.9	0.9	0.2	0.2
1.072	36.1608	36.3054	47.5634	1.4	1.4	0.9	0.9	0.2	0.2
1.073	36.1556	36.3015	47.5726	1.4	1.4	0.9	0.9	0.2	0.2
1.074	36.1485	36.2977	47.5811	1.4	1.4	0.9	0.9	0.2	0.2
1.075	36.1432	36.2941	47.5902	1.4	1.4	0.9	0.9	0.2	0.2
1.076	36.1452	36.2951	47.6	1.4	1.4	0.9	0.9	0.2	0.2
1.077	36.1502	36.2954	47.6058	1.4	1.4	0.9	0.9	0.2	0.2
1.078	36.1562	36.2931	47.6062	1.4	1.4	0.9	0.9	0.2	0.2
1.079	36.1636	36.2898	47.6013	1.4	1.4	0.9	0.9	0.2	0.2
1.08	36.1717	36.2867	47.5943	1.4	1.4	0.9	0.9	0.2	0.2
1.081	36.1783	36.2856	47.5871	1.4	1.4	0.9	0.9	0.2	0.2
1.082	36.18	36.2848	47.5779	1.4	1.4	0.9	0.9	0.2	0.2
1.083	36.1794	36.2832	47.5684	1.4	1.4	0.9	0.9	0.2	0.2
1.084	36.1826	36.2831	47.5623	1.4	1.4	0.9	0.9	0.2	0.2
1.085	36.1884	36.2848	47.5601	1.4	1.4	0.9	0.9	0.2	0.2
1.086	36.1927	36.2863	47.5617	1.4	1.4	0.9	0.9	0.2	0.2
1.087	36.1964	36.2882	47.5669	1.4	1.4	0.9	0.9	0.2	0.2
1.088	36.2023	36.2916	47.5745	1.4	1.4	0.9	0.9	0.2	0.2
1.089	36.2075	36.2937	47.5841	1.4	1.4	0.9	0.9	0.2	0.2
1.09	36.2062	36.2914	47.5935	1.4	1.4	0.9	0.9	0.2	0.2
1.091	36.1994	36.2846	47.6011	1.4	1.4	0.9	0.9	0.2	0.2
1.092	36.1932	36.2774	47.6086	1.4	1.4	0.9	0.9	0.2	0.2
1.093	36.1889	36.2726	47.616	1.4	1.4	0.9	0.9	0.2	0.2
1.094	36.1867	36.2732	47.6258	1.4	1.4	0.9	0.9	0.2	0.2
1.095	36.1848	36.2773	47.6361	1.4	1.4	0.9	0.9	0.2	0.2
1.096	36.1801	36.2796	47.6416	1.4	1.4	0.9	0.9	0.2	0.2
1.097	36.1749	36.2794	47.6445	1.4	1.4	0.9	0.9	0.2	0.2
1.098	36.1725	36.2774	47.6464	1.4	1.4	0.9	0.9	0.2	0.2
1.099	36.1717	36.2736	47.6454	1.4	1.4	0.9	0.9	0.2	0.2
1.1	36.1717	36.2695	47.6432	1.4	1.4	0.9	0.9	0.2	0.2
1.101	36.175	36.2674	47.6407	1.4	1.4	0.9	0.9	0.2	0.2
1.102	36.179	36.2671	47.6368	1.4	1.4	0.9	0.9	0.2	0.2
1.103	36.1736	36.2623	47.6302	1.4	1.4	0.9	0.9	0.2	0.2
1.104	36.1589	36.2522	47.6215	1.4	1.4	0.9	0.9	0.2	0.2
1.105	36.143	36.2413	47.6107	1.4	1.4	0.9	0.9	0.2	0.2
1.106	36.1285	36.2317	47.5992	1.4	1.4	0.9	0.9	0.2	0.2
1.107	36.1139	36.2225	47.5867	1.4	1.4	0.9	0.9	0.2	0.2
1.108	36.102	36.2157	47.5756	1.4	1.4	0.9	0.9	0.2	0.2
1.109	36.0958	36.2129	47.5661	1.4	1.4	0.9	0.9	0.2	0.2
1.11	36.0926	36.2129	47.5581	1.4	1.4	0.9	0.9	0.2	0.2
1.111	36.0928	36.2153	47.5559	1.4	1.4	0.9	0.9	0.2	0.2
1.112	36.0985	36.2209	47.5602	1.4	1.4	0.9	0.9	0.2	0.2
1.113	36.1089	36.2304	47.57	1.4	1.4	0.9	0.9	0.2	0.2
1.114	36.1203	36.2418	47.5832	1.4	1.4	0.9	0.9	0.2	0.2
1.115	36.1314	36.251	47.5989	1.4	1.4	0.9	0.9	0.2	0.2
1.116	36.1386	36.2541	47.6138	1.4	1.4	0.9	0.9	0.2	0.2
1.117	36.1387	36.2501	47.6234	1.4	1.4	0.9	0.9	0.2	0.2
1.118	36.1344	36.2421	47.6271	1.4	1.4	0.9	0.9	0.2	0.2
1.119	36.1269	36.2312	47.6257	1.4	1.4	0.9	0.9	0.2	0.2
1.12	36.1138	36.2158	47.6193	1.4	1.4	0.9	0.9	0.2	0.2
1.121	36.0957	36.1961	47.6073	1.4	1.4	0.9	0.9	0.2	0.2
1.122	36.0777	36.1771	47.5941	1.4	1.4	0.9	0.9	0.2	0.2
1.123	36.0624	36.162	47.5811	1.4	1.4	0.9	0.9	0.2	0.2
1.124	36.0513	36.1542	47.5722	1.4	1.4	0.9	0.9	0.2	0.2
1.125	36.0421	36.1498	47.5663	1.4	1.4	0.9	0.9	0.2	0.2
1.126	36.0307	36.143	47.5565	1.4	1.4	0.9	0.9	0.2	0.2
1.127	36.0157	36.1323	47.5414	1.4	1.4	0.9	0.9	0.2	0.2
1.128	35.9994	36.1156	47.5236	1.4	1.4	0.9	0.9	0.2	0.2
1.129	35.9839	36.0922	47.5064	1.4	1.4	0.9	0.9	0.2	0.2
1.13	35.9666	36.0626	47.4892	1.4	1.4	0.9	0.9	0.2	0.2
1.131	35.945	36.0289	47.4698	1.4	1.4	0.9	0.9	0.2	0.2
1.132	35.9203	35.9939	47.4486	1.4	1.4	0.9	0.9	0.2	0.2
1.133	35.8952	35.9593	47.4275	1.4	1.4	0.9	0.9	0.2	0.2
1.134	35.867	35.9248	47.4051	1.4	1.4	0.9	0.9	0.2	0.2
1.135	35.8326	35.891	47.3797	1.4	1.4	0.9	0.9	0.2	0.2
1.136	35.7964	35.8609	47.3533	1.4	1.4	0.9	0.9	0.2	0.2
1.137	35.7654	35.8388	47.3284	1.4	1.4	0.9	0.9	0.2	0.2
1.138	35.7371	35.8225	47.3031	1.4	1.4	0.9	0.9	0.2	0.2
1.139	35.7014	35.7993	47.2694	1.4	1.4	0.9	0.9	0.2	0.2
1.14	35.6579	35.7669	47.2257	1.4	1.4	0.9	0.9	0.2	0.2
1.141	35.6134	35.7315	47.1804	1.4	1.4	0.9	0.9	0.2	0.2
1.142	35.5701	35.6927	47.1374	1.4	1.4	0.9	0.9	0.2	0.2
1.143	35.5266	35.6508	47.0964	1.4	1.4	0.9	0.9	0.2	0.2
1.144	35.4817	35.6057	47.0557	1.4	1.4	0.9	0.9	0.2	0.2
1.145	35.4358	35.5546	47.0118	1.4	1.4	0.9	0.9	0.2	0.2
1.146	35.3923	35.5005	46.9649	1.4	1.4	0.9	0.9	0.2	0.2
1.147	35.3526	35.4473	46.9183	1.4	1.4	0.9	0.9	0.2	0.2
1.148	35.3139	35.3963	46.873	1.4	1.4	0.9	0.9	0.2	0.2
1.149	35.2764	35.35	46.8294	1.4	1.4	0.9	0.9	0.2	0.2
1.15	35.245	35.3108	46.7891	1.4	1.4	0.9	0.9	0.2	0.2
1.151	35.2186	35.2782	46.7531	1.4	1.4	0.9	0.9	0.2	0.2
1.152	35.1885	35.2458	46.7179	1.4	1.4	0.9	0.9	0.2	0.2
1.153	35.1543	35.2126	46.6835	1.4	1.4	0.9	0.9	0.2	0.2
1.154	35.1224	35.1838	46.6533	1.4	1.4	0.9	0.9	0.2	0.2
1.155	35.0932	35.1599	46.629	1.4	1.4	0.9	0.9	0.2	0.2
1.156	35.0611	35.1356	46.608	1.4	1.4	0.9	0.9	0.2	0.2
1.157	35.0263	35.1103	46.5891	1.4	1.4	0.9	0.9	0.2	0.2
1.158	34.9899	35.0826	46.5685	1.4	1.4	0.9	0.9	0.2	0.2
1.159	34.9538	35.0515	46.5454	1.4	1.4	0.9	0.9	0.2	0.2
1.16	34.9225	35.0226	46.5256	1.4	1.4	0.9	0.9	0.2	0.2
1.161	34.8978	34.9984	46.5116	1.4	1.4	0.9	0.9	0.2	0.2
1.162	34.8781	34.9789	46.5023	1.4	1.4	0.9	0.9	0.2	0.2
1.163	34.8628	34.9635	46.4959	1.4	1.4	0.9	0.9	0.2	0.2
1.164	34.8518	34.9504	46.491	1.4	1.4	0.9	0.9	0.2	0.2
1.165	34.8441	34.9383	46.4866	1.4	1.4	0.9	0.9	0.2	0.2
1.166	34.8398	34.9279	46.4826	1.4	1.4	0.9	0.9	0.2	0.2
1.167	34.8395	34.9198	46.4797	1.4	1.4	0.9	0.9	0.2	0.2
1.168	34.8399	34.9127	46.4775	1.4	1.4	0.9	0.9	0.2	0.2
1.169	34.8362	34.9047	46.4752	1.4	1.4	0.9	0.9	0.2	0.2
1.17	34.8268	34.893	46.4706	1.4	1.4	0.9	0.9	0.2	0.2
1.171	34.8132	34.8766	46.4609	1.4	1.4	0.9	0.9	0.2	0.2
1.172	34.7971	34.8585	46.4474	1.4	1.4	0.9	0.9	0.2	0.2
1.173	34.7818	34.8429	46.4343	1.4	1.4	0.9	0.9	0.2	0.2
1.174	34.7686	34.8309	46.4238	1.4	1.4	0.9	0.9	0.2	0.2
1.175	34.7575	34.8226	46.4162	1.4	1.4	0.9	0.9	0.2	0.2
1.176	34.7485	34.8171	46.4114	1.4	1.4	0.9	0.9	0.2	0.2
1.177	34.7444	34.8149	46.4112	1.4	1.4	0.9	0.9	0.2	0.2
1.178	34.7455	34.8144	46.4142	1.4	1.4	0.9	0.9	0.2	0.2
1.179	34.7486	34.8129	46.4177	1.4	1.4	0.9	0.9	0.2	0.2
1.18	34.7528	34.811	46.4213	1.4	1.4	0.9	0.9	0.2	0.2
1.181	34.7579	34.8104	46.4249	1.4	1.4	0.9	0.9	0.2	0.2
1.182	34.7616	34.8109	46.4289	1.4	1.4	0.9	0.9	0.2	0.2
1.183	34.7617	34.8104	46.4326	1.4	1.4	0.9	0.9	0.2	0.2
1.184	34.7582	34.8068	46.4346	1.4	1.4	0.9	0.9	0.2	0.2
1.185	34.7532	34.801	46.4354	1.4	1.4	0.9	0.9	0.2	0.2
1.186	34.7493	34.7978	46.438	1.4	1.4	0.9	0.9	0.2	0.2
1.187	34.7456	34.7974	46.4414	1.4	1.4	0.9	0.9	0.2	0.2
1.188	34.7404	34.7975	46.4449	1.4	1.4	0.9	0.9	0.2	0.2
1.189	34.7354	34.7992	46.4501	1.4	1.4	0.9	0.9	0.2	0.2
1.19	34.7327	34.8015	46.4582	1.4	1.4	0.9	0.9	0.2	0.2
1.191	34.7318	34.8037	46.4681	1.4	1.4	0.9	0.9	0.2	0.2
1.192	34.7288	34.8032	46.4762	1.4	1.4	0.9	0.9	0.2	0.2
1.193	34.7232	34.7989	46.4794	1.4	1.4	0.9	0.9	0.2	0.2
1.194	34.7172	34.7947	46.4755	1.4	1.4	0.9	0.9	0.2	0.2
1.195	34.712	34.7923	46.4668	1.4	1.4	0.9	0.9	0.2	0.2
1.196	34.7065	34.7908	46.4551	1.4	1.4	0.9	0.9	0.2	0.2
1.197	34.7009	34.7896	46.4433	1.4	1.4	0.9	0.9	0.2	0.2
1.198	34.697	34.7883	46.4338	1.4	1.4	0.9	0.9	0.2	0.2
1.199	34.6961	34.7878	46.4281	1.4	1.4	0.9	0.9	0.2	0.2
1.2	34.6977	34.7899	46.4281	1.4	1.4	0.9	0.9	0.2	0.2
1.201	34.6998	34.7937	46.4328	1.4	1.4	0.9	0.9	0.2	0.2
1.202	34.7024	34.798	46.4402	1.4	1.4	0.9	0.9	0.2	0.2
1.203	34.7077	34.8034	46.4507	1.4	1.4	0.9	0.9	0.2	0.2
1.204	34.7143	34.809	46.4638	1.4	1.4	0.9	0.9	0.2	0.2
1.205	34.7185	34.8132	46.4766	1.4	1.4	0.9	0.9	0.2	0.2
1.206	34.7208	34.8154	46.4879	1.4	1.4	0.9	0.9	0.2	0.2
1.207	34.7236	34.8163	46.4958	1.4	1.4	0.9	0.9	0.2	0.2
1.208	34.7258	34.8161	46.4987	1.4	1.4	0.9	0.9	0.2	0.2
1.209	34.7254	34.8139	46.4992	1.4	1.4	0.9	0.9	0.2	0.2
1.21	34.7237	34.8102	46.4987	1.4	1.4	0.9	0.9	0.2	0.2
1.211	34.7238	34.8054	46.5002	1.4	1.4	0.9	0.9	0.2	0.2
1.212	34.727	34.8012	46.5051	1.4	1.4	0.9	0.9	0.2	0.2
1.213	34.7355	34.8038	46.5148	1.4	1.4	0.9	0.9	0.2	0.2
1.214	34.7482	34.8135	46.5299	1.4	1.4	0.9	0.9	0.2	0.2
1.215	34.7619	34.827	46.5455	1.4	1.4	0.9	0.9	0.2	0.2
1.216	34.7763	34.8429	46.5601	1.4	1.4	0.9	0.9	0.2	0.2
1.217	34.7934	34.863	46.5769	1.4	1.4	0.9	0.9	0.2	0.2
1.218	34.8107	34.885	46.5952	1.4	1.4	0.9	0.9	0.2	0.2
1.219	34.8232	34.903	46.6108	1.4	1.4	0.9	0.9	0.2	0.2
1.22	34.832	34.9161	46.6232	1.4	1.4	0.9	0.9	0.2	0.2
1.221	34.8407	34.9276	46.6357	1.4	1.4	0.9	0.9	0.2	0.2
1.222	34.8486	34.9383	46.6493	1.4	1.4	0.9	0.9	0.2	0.2
1.223	34.8539	34.9451	46.6618	1.4	1.4	0.9	0.9	0.2	0.2
1.224	34.8588	34.9476	46.6734	1.4	1.4	0.9	0.9	0.2	0.2
1.225	34.8643	34.9478	46.6852	1.4	1.4	0.9	0.9	0.2	0.2
1.226	34.8709	34.9501	46.6974	1.4	1.4	0.9	0.9	0.2	0.2
1.227	34.8806	34.9566	46.7106	1.4	1.4	0.9	0.9	0.2	0.2
1.228	34.8923	34.9647	46.724	1.4	1.4	0.9	0.9	0.2	0.2
1.229	34.903	34.9718	46.7355	1.4	1.4	0.9	0.9	0.2	0.2
1.23	34.9121	34.9767	46.7462	1.4	1.4	0.9	0.9	0.2	0.2
1.231	34.9211	34.9824	46.7574	1.4	1.4	0.9	0.9	0.2	0.2
1.232	34.9251	34.9879	46.7647	1.4	1.4	0.9	0.9	0.2	0.2
1.233	34.9232	34.9908	46.7672	1.4	1.4	0.9	0.9	0.2	0.2
1.234	34.921	34.9951	46.7694	1.4	1.4	0.9	0.9	0.2	0.2
1.235	34.9229	35.0038	46.7749	1.4	1.4	0.9	0.9	0.2	0.2
1.236	34.9305	35.0169	46.7844	1.4	1.4	0.9	0.9	0.2	0.2
1.237	34.9408	35.0298	46.7951	1.4	1.4	0.9	0.9	0.2	0.2
1.238	34.9513	35.0395	46.8047	1.4	1.4	0.9	0.9	0.2	0.2
1.239	34.9621	35.0478	46.8149	1.4	1.4	0.9	0.9	0.2	0.2
1.24	34.9738	35.0563	46.8288	1.4	1.4	0.9	0.9	0.2	0.2
1.241	34.9871	35.0648	46.8463	1.4	1.4	0.9	0.9	0.2	0.2
1.242	35.0006	35.0724	46.8644	1.4	1.4	0.9	0.9	0.2	0.2
1.243	35.0105	35.0766	46.8796	1.4	1.4	0.9	0.9	0.2	0.2
1.244	35.0159	35.0767	46.8909	1.4	1.4	0.9	0.9	0.2	0.2
1.245	35.0183	35.0765	46.8986	1.4	1.4	0.9	0.9	0.2	0.2
1.246	35.0164	35.0764	46.9007	1.4	1.4	0.9	0.9	0.2	0.2
1.247	35.012	35.0746	46.8982	1.4	1.4	0.9	0.9	0.2	0.2
1.248	35.0074	35.0733	46.8949	1.4	1.4	0.9	0.9	0.2	0.2
1.249	35.0044	35.074	46.894	1.4	1.4	0.9	0.9	0.2	0.2
1.25	35.0049	35.0782	46.8969	1.4	1.4	0.9	0.9	0.2	0.2
1.251	35.0064	35.0826	46.9019	1.4	1.4	0.9	0.9	0.2	0.2
1.252	35.0084	35.0861	46.9079	1.4	1.4	0.9	0.9	0.2	0.2
1.253	35.0145	35.0933	46.9177	1.4	1.4	0.9	0.9	0.2	0.2
1.254	35.0243	35.1045	46.9327	1.4	1.4	0.9	0.9	0.2	0.2
1.255	35.036	35.1176	46.95	1.4	1.4	0.9	0.9	0.2	0.2
1.256	35.049	35.1319	46.9672	1.4	1.4	0.9	0.9	0.2	0.2
1.257	35.0639	35.1476	46.9837	1.4	1.4	0.9	0.9	0.2	0.2
1.258	35.0793	35.1627	46.9989	1.4	1.4	0.9	0.9	0.2	0.2
1.259	35.0932	35.1754	47.0125	1.4	1.4	0.9	0.9	0.2	0.2
1.26	35.1027	35.1834	47.0217	1.4	1.4	0.9	0.9	0.2	0.2
1.261	35.1046	35.185	47.0244	1.4	1.4	0.9	0.9	0.2	0.2
1.262	35.1001	35.1817	47.0234	1.4	1.4	0.9	0.9	0.2	0.2
1.263	35.0935	35.1757	47.0211	1.4	1.4	0.9	0.9	0.2	0.2
1.264	35.0866	35.168	47.0176	1.4	1.4	0.9	0.9	0.2	0.2
1.265	35.0786	35.1595	47.0124	1.4	1.4	0.9	0.9	0.2	0.2
1.266	35.0702	35.1516	47.0056	1.4	1.4	0.9	0.9	0.2	0.2
1.267	35.0629	35.1447	46.9986	1.4	1.4	0.9	0.9	0.2	0.2
1.268	35.0551	35.1366	46.9924	1.4	1.4	0.9	0.9	0.2	0.2
1.269	35.047	35.1287	46.9873	1.4	1.4	0.9	0.9	0.2	0.2
1.27	35.039	35.1228	46.9828	1.4	1.4	0.9	0.9	0.2	0.2
1.271	35.0339	35.1203	46.9804	1.4	1.4	0.9	0.9	0.2	0.2
1.272	35.0325	35.1213	46.9807	1.4	1.4	0.9	0.9	0.2	0.2
1.273	35.0339	35.1249	46.9844	1.4	1.4	0.9	0.9	0.2	0.2
1.274	35.0383	35.1304	46.9903	1.4	1.4	0.9	0.9	0.2	0.2
1.275	35.0423	35.1357	46.9961	1.4	1.4	0.9	0.9	0.2	0.2
1.276	35.046	35.1426	47.0033	1.4	1.4	0.9	0.9	0.2	0.2
1.277	35.052	35.1506	47.012	1.4	1.4	0.9	0.9	0.2	0.2
1.278	35.0599	35.157	47.021	1.4	1.4	0.9	0.9	0.2	0.2
1.279	35.066	35.1604	47.0284	1.4	1.4	0.9	0.9	0.2	0.2
1.28	35.0699	35.1607	47.0334	1.4	1.4	0.9	0.9	0.2	0.2
1.281	35.07	35.1561	47.0361	1.4	1.4	0.9	0.9	0.2	0.2
1.282	35.0619	35.1432	47.0348	1.4	1.4	0.9	0.9	0.2	0.2
1.283	35.046	35.1244	47.0288	1.4	1.4	0.9	0.9	0.2	0.2
1.284	35.0267	35.1037	47.02	1.4	1.4	0.9	0.9	0.2	0.2
1.285	35.009	35.0843	47.0106	1.4	1.4	0.9	0.9	0.2	0.2
1.286	34.9949	35.0684	46.9998	1.4	1.4	0.9	0.9	0.2	0.2
1.287	34.9839	35.0562	46.9874	1.4	1.4	0.9	0.9	0.2	0.2
1.288	34.9759	35.0472	46.9765	1.4	1.4	0.9	0.9	0.2	0.2
1.289	34.9679	35.04	46.9678	1.4	1.4	0.9	0.9	0.2	0.2
1.29	34.9576	35.0328	46.9599	1.4	1.4	0.9	0.9	0.2	0.2
1.291	34.9463	35.0228	46.951	1.4	1.4	0.9	0.9	0.2	0.2
1.292	34.9366	35.0122	46.9432	1.4	1.4	0.9	0.9	0.2	0.2
1.293	34.9284	35.0045	46.9373	1.4	1.4	0.9	0.9	0.2	0.2
1.294	34.9206	34.9983	46.9319	1.4	1.4	0.9	0.9	0.2	0.2
1.295	34.9104	34.991	46.9264	1.4	1.4	0.9	0.9	0.2	0.2
1.296	34.8957	34.9796	46.9195	1.4	1.4	0.9	0.9	0.2	0.2
1.297	34.8806	34.9664	46.9114	1.4	1.4	0.9	0.9	0.2	0.2
1.298	34.8681	34.9542	46.9034	1.4	1.4	0.9	0.9	0.2	0.2
1.299	34.858	34.9442	46.8958	1.4	1.4	0.9	0.9	0.2	0.2
1.3	34.8489	34.9355	46.8859	1.4	1.4	0.9	0.9	0.2	0.2
1.301	34.8385	34.9257	46.8738	1.4	1.4	0.9	0.9	0.2	0.2
1.302	34.8258	34.913	46.8604	1.4	1.4	0.9	0.9	0.2	0.2
1.303	34.809	34.8964	46.8424	1.4	1.4	0.9	0.9	0.2	0.2
1.304	34.7876	34.8749	46.8188	1.4	1.4	0.9	0.9	0.2	0.2
1.305	34.7647	34.8505	46.7934	1.4	1.4	0.9	0.9	0.2	0.2
1.306	34.7426	34.8271	46.7697	1.4	1.4	0.9	0.9	0.2	0.2
1.307	34.7195	34.8053	46.7474	1.4	1.4	0.9	0.9	0.2	0.2
1.308	34.6941	34.7827	46.7247	1.4	1.4	0.9	0.9	0.2	0.2
1.309	34.6682	34.7592	46.7025	1.4	1.4	0.9	0.9	0.2	0.2
1.31	34.643	34.7335	46.6806	1.4	1.4	0.9	0.9	0.2	0.2
1.311	34.6206	34.706	46.658	1.4	1.4	0.9	0.9	0.2	0.2
1.312	34.6009	34.6786	46.6357	1.4	1.4	0.9	0.9	0.2	0.2
1.313	34.5806	34.65	46.6143	1.4	1.4	0.9	0.9	0.2	0.2
1.314	34.5558	34.6176	46.5915	1.4	1.4	0.9	0.9	0.2	0.2
1.315	34.525	34.5803	46.5652	1.4	1.4	0.9	0.9	0.2	0.2
1.316	34.4876	34.5381	46.5327	1.4	1.4	0.9	0.9	0.2	0.2
1.317	34.4451	34.4932	46.4944	1.4	1.4	0.9	0.9	0.2	0.2
1.318	34.401	34.4485	46.4551	1.4	1.4	0.9	0.9	0.2	0.2
1.319	34.3573	34.4047	46.4173	1.4	1.4	0.9	0.9	0.2	0.2
1.32	34.3132	34.3616	46.3808	1.4	1.4	0.9	0.9	0.2	0.2
1.321	34.2677	34.3197	46.344	1.4	1.4	0.9	0.9	0.2	0.2
1.322	34.2227	34.2795	46.3057	1.4	1.4	0.9	0.9	0.2	0.2
1.323	34.1797	34.24	46.2667	1.4	1.4	0.9	0.9	0.2	0.2
1.324	34.1381	34.2006	46.2264	1.4	1.4	0.9	0.9	0.2	0.2
1.325	34.0988	34.1616	46.1851	1.4	1.4	0.9	0.9	0.2	0.2
1.326	34.0599	34.1186	46.1443	1.4	1.4	0.9	0.9	0.2	0.2
1.327	34.0177	34.0709	46.1031	1.4	1.4	0.9	0.9	0.2	0.2
1.328	33.9733	34.024	46.0616	1.4	1.4	0.9	0.9	0.2	0.2
1.329	33.927	33.9775	46.0177	1.4	1.4	0.9	0.9	0.2	0.2
1.33	33.8772	33.9283	45.9693	1.4	1.4	0.9	0.9	0.2	0.2
1.331	33.8261	33.8787	45.9181	1.4	1.4	0.9	0.9	0.2	0.2
1.332	33.7753	33.8296	45.8641	1.4	1.4	0.9	0.9	0.2	0.2
1.333	33.7255	33.7807	45.8088	1.4	1.4	0.9	0.9	0.2	0.2
1.334	33.6783	33.7337	45.7563	1.4	1.4	0.9	0.9	0.2	0.2
1.335	33.6328	33.6888	45.7053	1.4	1.4	0.9	0.9	0.2	0.2
1.336	33.5881	33.6466	45.6527	1.4	1.4	0.9	0.9	0.2	0.2
1.337	33.5433	33.6057	45.5989	1.4	1.4	0.9	0.9	0.2	0.2
1.338	33.4967	33.5632	45.5437	1.4	1.4	0.9	0.9	0.2	0.2
1.339	33.4486	33.5168	45.4881	1.4	1.4	0.9	0.9	0.2	0.2
1.34	33.3993	33.4654	45.4355	1.4	1.4	0.9	0.9	0.2	0.2
1.341	33.3487	33.4133	45.3858	1.4	1.4	0.9	0.9	0.2	0.2
1.342	33.3005	33.3658	45.3402	1.4	1.4	0.9	0.9	0.2	0.2
1.343	33.2565	33.3205	45.2979	1.4	1.4	0.9	0.9	0.2	0.2
1.344	33.2138	33.2732	45.2556	1.4	1.4	0.9	0.9	0.2	0.2
1.345	33.1718	33.224	45.2122	1.4	1.4	0.9	0.9	0.2	0.2
1.346	33.1305	33.1753	45.1693	1.4	1.4	0.9	0.9	0.2	0.2
1.347	33.0883	33.1287	45.1301	1.4	1.4	0.9	0.9	0.2	0.2
1.348	33.0469	33.0853	45.0961	1.4	1.4	0.9	0.9	0.2	0.2
1.349	33.0075	33.0451	45.0637	1.4	1.4	0.9	0.9	0.2	0.2
1.35	32.9697	33.0086	45.0303	1.4	1.4	0.9	0.9	0.2	0.2
1.351	32.9348	32.9769	44.9977	1.4	1.4	0.9	0.9	0.2	0.2
1.352	32.8999	32.9458	44.9647	1.4	1.4	0.9	0.9	0.2	0.2
1.353	32.8599	32.9106	44.9304	1.4	1.4	0.9	0.9	0.2	0.2
1.354	32.8158	32.8715	44.8964	1.4	1.4	0.9	0.9	0.2	0.2
1.355	32.7696	32.8293	44.8621	1.4	1.4	0.9	0.9	0.2	0.2
1.356	32.7253	32.7865	44.8271	1.4	1.4	0.9	0.9	0.2	0.2
1.357	32.6873	32.7449	44.7925	1.4	1.4	0.9	0.9	0.2	0.2
1.358	32.6515	32.7017	44.7553	1.4	1.4	0.9	0.9	0.2	0.2
1.359	32.6157	32.656	44.7161	1.4	1.4	0.9	0.9	0.2	0.2
1.36	32.5769	32.6072	44.6752	1.4	1.4	0.9	0.9	0.2	0.2
1.361	32.5303	32.5538	44.6297	1.4	1.4	0.9	0.9	0.2	0.2
1.362	32.4784	32.4969	44.5791	1.4	1.4	0.9	0.9	0.2	0.2
1.363	32.4232	32.4379	44.5218	1.4	1.4	0.9	0.9	0.2	0.2
1.364	32.3646	32.3771	44.4577	1.4	1.4	0.9	0.9	0.2	0.2
1.365	32.3047	32.3154	44.3911	1.4	1.4	0.9	0.9	0.2	0.2
1.366	32.2398	32.2478	44.3213	1.4	1.4	0.9	0.9	0.2	0.2
1.367	32.1638	32.1715	44.2436	1.4	1.4	0.9	0.9	0.2	0.2
1.368	32.0795	32.0902	44.1582	1.4	1.4	0.9	0.9	0.2	0.2
1.369	31.9905	32.0038	44.0677	1.4	1.4	0.9	0.9	0.2	0.2
1.37	31.9012	31.9125	43.9743	1.4	1.4	0.9	0.9	0.2	0.2
1.371	31.8122	31.8183	43.8771	1.4	1.4	0.9	0.9	0.2	0.2
1.372	31.7182	31.7197	43.7734	1.4	1.4	0.9	0.9	0.2	0.2
1.373	31.6173	31.6139	43.6621	1.4	1.4	0.9	0.9	0.2	0.2
1.374	31.5108	31.5009	43.5426	1.4	1.4	0.9	0.9	0.2	0.2
1.375	31.3931	31.3787	43.4113	1.4	1.4	0.9	0.9	0.2	0.2
1.376	31.2644	31.2492	43.2686	1.4	1.4	0.9	0.9	0.2	0.2
1.377	31.125	31.1109	43.1121	1.4	1.4	0.9	0.9	0.2	0.2
1.378	30.9767	30.9634	42.9456	1.4	1.4	0.9	0.9	0.2	0.2
1.379	30.8177	30.8038	42.7691	1.4	1.4	0.9	0.9	0.2	0.2
1.38	30.6459	30.6305	42.5793	1.4	1.4	0.9	0.9	0.2	0.2
1.381	30.4566	30.4417	42.3699	1.4	1.4	0.9	0.9	0.2	0.2
1.382	30.2539	30.2405	42.1446	1.4	1.4	0.9	0.9	0.2	0.2
1.383	30.0382	30.0231	41.9035	1.4	1.4	0.9	0.9	0.2	0.2
1.384	29.8099	29.7899	41.6461	1.4	1.4	0.9	0.9	0.2	0.2
1.385	29.5659	29.5418	41.3701	1.4	1.4	0.9	0.9	0.2	0.2
1.386	29.306	29.2796	41.0787	1.4	1.4	0.9	0.9	0.2	0.2
1.387	29.0336	29.0042	40.7714	1.4	1.4	0.9	0.9	0.2	0.2
1.388	28.7525	28.7158	40.4478	1.4	1.4	0.9	0.9	0.2	0.2
1.389	28.456	28.4111	40.1048	1.4	1.4	0.9	0.9	0.2	0.2
1.39	28.1464	28.0965	39.7473	1.4	1.4	0.9	0.9	0.2	0.2
1.391	27.8258	27.7739	39.3771	1.4	1.4	0.9	0.9	0.2	0.2
1.392	27.498	27.4445	38.9968	1.4	1.4	0.9	0.9	0.2	0.2
1.393	27.1647	27.1094	38.6057	1.4	1.4	0.9	0.9	0.2	0.2
1.394	26.827	26.7704	38.2047	1.4	1.4	0.9	0.9	0.2	0.2
1.395	26.4834	26.4272	37.7939	1.4	1.4	0.9	0.9	0.2	0.2
1.396	26.1384	26.0832	37.3772	1.4	1.4	0.9	0.9	0.2	0.2
1.397	25.7913	25.736	36.9533	1.4	1.4	0.9	0.9	0.2	0.2
1.398	25.444	25.3865	36.5267	1.4	1.4	0.9	0.9	0.2	0.2
1.399	25.0964	25.035	36.1002	1.4	1.4	0.9	0.9	0.2	0.2
1.4	24.7518	24.6857	35.6783	1.4	1.4	0.9	0.9	0.2	0.2
1.401	24.4144	24.343	35.2633	1.4	1.4	0.9	0.9	0.2	0.2
1.402	24.0822	24.0036	34.8529	1.4	1.4	0.9	0.9	0.2	0.2
1.403	23.7495	23.6648	34.4445	1.4	1.4	0.9	0.9	0.2	0.2
1.404	23.4226	23.3351	34.0451	1.4	1.4	0.9	0.9	0.2	0.2
1.405	23.1035	23.0152	33.6538	1.4	1.4	0.9	0.9	0.2	0.2
1.406	22.7963	22.707	33.2726	1.4	1.4	0.9	0.9	0.2	0.2
1.407	22.5062	22.4163	32.9058	1.4	1.4	0.9	0.9	0.2	0.2
1.408	22.2291	22.141	32.5524	1.4	1.4	0.9	0.9	0.2	0.2
1.409	21.9602	21.8755	32.2105	1.4	1.4	0.9	0.9	0.2	0.2
1.41	21.7024	21.62	31.8797	1.4	1.4	0.9	0.9	0.2	0.2
1.411	21.4557	21.3727	31.5557	1.4	1.4	0.9	0.9	0.2	0.2
1.412	21.221	21.1358	31.2439	1.4	1.4	0.9	0.9	0.2	0.2
1.413	20.9967	20.9087	30.9458	1.4	1.4	0.9	0.9	0.2	0.2
1.414	20.7857	20.6951	30.6647	1.4	1.4	0.9	0.9	0.2	0.2
1.415	20.5887	20.4967	30.4027	1.4	1.4	0.9	0.9	0.2	0.2
1.416	20.4002	20.3083	30.1545	1.4	1.4	0.9	0.9	0.2	0.2
1.417	20.2162	20.1256	29.9152	1.4	1.4	0.9	0.9	0.2	0.2
1.418	20.0429	19.9546	29.6906	1.4	1.4	0.9	0.9	0.2	0.2
1.419	19.8829	19.7973	29.481	1.4	1.4	0.9	0.9	0.2	0.2
1.42	19.739	19.656	29.2895	1.4	1.4	0.9	0.9	0.2	0.2
1.421	19.6097	19.5294	29.1153	1.4	1.4	0.9	0.9	0.2	0.2
1.422	19.4883	19.4112	28.9544	1.4	1.4	0.9	0.9	0.2	0.2
1.423	19.3694	19.2964	28.8014	1.4	1.4	0.9	0.9	0.2	0.2
1.424	19.2557	19.1867	28.6549	1.4	1.4	0.9	0.9	0.2	0.2
1.425	19.1484	19.0822	28.5133	1.4	1.4	0.9	0.9	0.2	0.2
1.426	19.0491	18.9852	28.3822	1.4	1.4	0.9	0.9	0.2	0.2
1.427	18.9544	18.8922	28.2595	1.4	1.4	0.9	0.9	0.2	0.2
1.428	18.8639	18.8027	28.1431	1.4	1.4	0.9	0.9	0.2	0.2
1.429	18.7791	18.7185	28.0348	1.4	1.4	0.9	0.9	0.2	0.2
1.43	18.6998	18.6397	27.9349	1.4	1.4	0.9	0.9	0.2	0.2
1.431	18.6253	18.5655	27.8403	1.4	1.4	0.9	0.9	0.2	0.2
1.432	18.559	18.4989	27.7535	1.4	1.4	0.9	0.9	0.2	0.2
1.433	18.5036	18.4417	27.6771	1.4	1.4	0.9	0.9	0.2	0.2
1.434	18.4573	18.392	27.611	1.4	1.4	0.9	0.9	0.2	0.2
1.435	18.4165	18.348	27.5537	1.4	1.4	0.9	0.9	0.2	0.2
1.436	18.379	18.3097	27.5041	1.4	1.4	0.9	0.9	0.2	0.2
1.437	18.3422	18.275	27.4598	1.4	1.4	0.9	0.9	0.2	0.2
1.438	18.3068	18.2422	27.4201	1.4	1.4	0.9	0.9	0.2	0.2
1.439	18.276	18.2132	27.3852	1.4	1.4	0.9	0.9	0.2	0.2
1.44	18.2491	18.1888	27.353	1.4	1.4	0.9	0.9	0.2	0.2
1.441	18.2231	18.1662	27.3229	1.4	1.4	0.9	0.9	0.2	0.2
1.442	18.1999	18.146	27.2989	1.4	1.4	0.9	0.9	0.2	0.2
1.443	18.1804	18.129	27.2812	1.4	1.4	0.9	0.9	0.2	0.2
1.444	18.1632	18.1131	27.2655	1.4	1.4	0.9	0.9	0.2	0.2
1.445	18.1466	18.0968	27.2487	1.4	1.4	0.9	0.9	0.2	0.2
1.446	18.1251	18.0758	27.2274	1.4	1.4	0.9	0.9	0.2	0.2
1.447	18.1028	18.0528	27.2068	1.4	1.4	0.9	0.9	0.2	0.2
1.448	18.0856	18.0324	27.1929	1.4	1.4	0.9	0.9	0.2	0.2
1.449	18.0731	18.0166	27.1866	1.4	1.4	0.9	0.9	0.2	0.2
1.45	18.0628	18.0044	27.1869	1.4	1.4	0.9	0.9	0.2	0.2
1.451	18.0671	18.012	27.1944	1.4	1.4	0.9	0.9	0.2	0.2
1.452	18.0657	18.0113	27.201	1.4	1.4	0.9	0.9	0.2	0.2
1.453	18.0662	18.0121	27.2102	1.4	1.4	0.9	0.9	0.2	0.2
1.454	18.0695	18.0154	27.2234	1.4	1.4	0.9	0.9	0.2	0.2
1.455	18.0753	18.0214	27.2401	1.4	1.4	0.9	0.9	0.2	0.2
1.456	18.0836	18.0301	27.2593	1.4	1.4	0.9	0.9	0.2	0.2
1.457	18.0953	18.0417	27.2825	1.4	1.4	0.9	0.9	0.2	0.2
1.458	18.1112	18.0567	27.3111	1.4	1.4	0.9	0.9	0.2	0.2
1.459	18.1309	18.0754	27.3446	1.4	1.4	0.9	0.9	0.2	0.2
1.46	18.1532	18.0977	27.3827	1.4	1.4	0.9	0.9	0.2	0.2
1.461	18.1785	18.1237	27.4255	1.4	1.4	0.9	0.9	0.2	0.2
1.462	18.2073	18.1535	27.4726	1.4	1.4	0.9	0.9	0.2	0.2
1.463	18.2399	18.1872	27.5243	1.4	1.4	0.9	0.9	0.2	0.2
1.464	18.2763	18.225	27.58	1.4	1.4	0.9	0.9	0.2	0.2
1.465	18.3162	18.2664	27.6396	1.4	1.4	0.9	0.9	0.2	0.2
1.466	18.3593	18.3107	27.704	1.4	1.4	0.9	0.9	0.2	0.2
1.467	18.4054	18.3577	27.7732	1.4	1.4	0.9	0.9	0.2	0.2
1.468	18.4538	18.4074	27.8456	1.4	1.4	0.9	0.9	0.2	0.2
1.469	18.504	18.4594	27.921	1.4	1.4	0.9	0.9	0.2	0.2
1.47	18.5553	18.5124	27.9993	1.4	1.4	0.9	0.9	0.2	0.2
1.471	18.608	18.5666	28.0814	1.4	1.4	0.9	0.9	0.2	0.2
1.472	18.6649	18.6247	28.1706	1.4	1.4	0.9	0.9	0.2	0.2
1.473	18.7264	18.6869	28.2667	1.4	1.4	0.9	0.9	0.2	0.2
1.474	18.7916	18.7529	28.367	1.4	1.4	0.9	0.9	0.2	0.2
1.475	18.8596	18.822	28.4709	1.4	1.4	0.9	0.9	0.2	0.2
1.476	18.9309	18.8947	28.5788	1.4	1.4	0.9	0.9	0.2	0.2
1.477	19.0054	18.971	28.6906	1.4	1.4	0.9	0.9	0.2	0.2
1.478	19.0814	19.0492	28.8044	1.4	1.4	0.9	0.9	0.2	0.2
1.479	19.1586	19.1282	28.9195	1.4	1.4	0.9	0.9	0.2	0.2
1.48	19.2384	19.2096	29.0375	1.4	1.4	0.9	0.9	0.2	0.2
1.481	19.3204	19.2934	29.1584	1.4	1.4	0.9	0.9	0.2	0.2
1.482	19.4034	19.3784	29.2814	1.4	1.4	0.9	0.9	0.2	0.2
1.483	19.487	19.4646	29.4059	1.4	1.4	0.9	0.9	0.2	0.2
1.484	19.5717	19.552	29.5315	1.4	1.4	0.9	0.9	0.2	0.2
1.485	19.658	19.6407	29.6585	1.4	1.4	0.9	0.9	0.2	0.2
1.486	19.7461	19.7306	29.7865	1.4	1.4	0.9	0.9	0.2	0.2
1.487	19.836	19.8211	29.9154	1.4	1.4	0.9	0.9	0.2	0.2
1.488	19.9278	19.9132	30.0464	1.4	1.4	0.9	0.9	0.2	0.2
1.489	20.0209	20.0063	30.1788	1.4	1.4	0.9	0.9	0.2	0.2
1.49	20.1147	20.1001	30.3125	1.4	1.4	0.9	0.9	0.2	0.2
1.491	20.2093	20.1947	30.4472	1.4	1.4	0.9	0.9	0.2	0.2
1.492	20.3038	20.2897	30.5822	1.4	1.4	0.9	0.9	0.2	0.2
1.493	20.3987	20.3849	30.7175	1.4	1.4	0.9	0.9	0.2	0.2
1.494	20.4946	20.481	30.8535	1.4	1.4	0.9	0.9	0.2	0.2
1.495	20.5908	20.5774	30.9894	1.4	1.4	0.9	0.9	0.2	0.2
1.496	20.6865	20.6739	31.1246	1.4	1.4	0.9	0.9	0.2	0.2
1.497	20.7821	20.7707	31.2591	1.4	1.4	0.9	0.9	0.2	0.2
1.498	20.8786	20.8681	31.3938	1.4	1.4	0.9	0.9	0.2	0.2
1.499	20.9753	20.965	31.5277	1.4	1.4	0.9	0.9	0.2	0.2
1.5	21.0708	21.0607	31.6595	1.4	1.4	0.9	0.9	0.2	0.2
1.501	21.1655	21.1555	31.7898	1.4	1.4	0.9	0.9	0.2	0.2
1.502	21.2588	21.2486	31.9186	1.4	1.4	0.9	0.9	0.2	0.2
1.503	21.3508	21.3407	32.046	1.4	1.4	0.9	0.9	0.2	0.2
1.504	21.4433	21.4338	32.1742	1.4	1.4	0.9	0.9	0.2	0.2
1.505	21.5366	21.5275	32.3029	1.4	1.4	0.9	0.9	0.2	0.2
1.506	21.6299	21.6209	32.4319	1.4	1.4	0.9	0.9	0.2	0.2
1.507	21.7235	21.7149	32.5617	1.4	1.4	0.9	0.9	0.2	0.2
1.508	21.8165	21.8086	32.6911	1.4	1.4	0.9	0.9	0.2	0.2
1.509	21.9091	21.9013	32.8184	1.4	1.4	0.9	0.9	0.2	0.2
1.51	22.0026	21.9942	32.9448	1.4	1.4	0.9	0.9	0.2	0.2
1.511	22.0969	22.0878	33.0717	1.4	1.4	0.9	0.9	0.2	0.2
1.512	22.1915	22.1824	33.1994	1.4	1.4	0.9	0.9	0.2	0.2
1.513	22.2855	22.2771	33.3263	1.4	1.4	0.9	0.9	0.2	0.2
1.514	22.3781	22.371	33.451	1.4	1.4	0.9	0.9	0.2	0.2
1.515	22.4696	22.4632	33.5736	1.4	1.4	0.9	0.9	0.2	0.2
1.516	22.5598	22.554	33.6943	1.4	1.4	0.9	0.9	0.2	0.2
1.517	22.649	22.6442	33.8139	1.4	1.4	0.9	0.9	0.2	0.2
1.518	22.7382	22.7346	33.9331	1.4	1.4	0.9	0.9	0.2	0.2
1.519	22.8279	22.8249	34.0518	1.4	1.4	0.9	0.9	0.2	0.2
1.52	22.917	22.9139	34.1691	1.4	1.4	0.9	0.9	0.2	0.2
1.521	23.0055	23.0019	34.2859	1.4	1.4	0.9	0.9	0.2	0.2
1.522	23.0938	23.0895	34.4029	1.4	1.4	0.9	0.9	0.2	0.2
1.523	23.1815	23.1763	34.5194	1.4	1.4	0.9	0.9	0.2	0.2
1.524	23.2685	23.2629	34.6356	1.4	1.4	0.9	0.9	0.2	0.2
1.525	23.3539	23.3494	34.7512	1.4	1.4	0.9	0.9	0.2	0.2
1.526	23.4381	23.4355	34.866	1.4	1.4	0.9	0.9	0.2	0.2
1.527	23.5218	23.5209	34.9791	1.4	1.4	0.9	0.9	0.2	0.2
1.528	23.6048	23.6051	35.0904	1.4	1.4	0.9	0.9	0.2	0.2
1.529	23.6879	23.6882	35.2008	1.4	1.4	0.9	0.9	0.2	0.2
1.53	23.7713	23.7707	35.3106	1.4	1.4	0.9	0.9	0.2	0.2
1.531	23.8534	23.8525	35.4192	1.4	1.4	0.9	0.9	0.2	0.2
1.532	23.934	23.9335	35.5259	1.4	1.4	0.9	0.9	0.2	0.2
1.533	24.0142	24.0138	35.6312	1.4	1.4	0.9	0.9	0.2	0.2
1.534	24.094	24.0929	35.7351	1.4	1.4	0.9	0.9	0.2	0.2
1.535	24.1721	24.1704	35.8364	1.4	1.4	0.9	0.9	0.2	0.2
1.536	24.2478	24.2461	35.9353	1.4	1.4	0.9	0.9	0.2	0.2
1.537	24.3212	24.32	36.032	1.4	1.4	0.9	0.9	0.2	0.2
1.538	24.3925	24.3923	36.1267	1.4	1.4	0.9	0.9	0.2	0.2
1.539	24.4638	24.4653	36.2212	1.4	1.4	0.9	0.9	0.2	0.2
1.54	24.5359	24.5388	36.3159	1.4	1.4	0.9	0.9	0.2	0.2
1.541	24.6069	24.6109	36.4085	1.4	1.4	0.9	0.9	0.2	0.2
1.542	24.6762	24.6811	36.4985	1.4	1.4	0.9	0.9	0.2	0.2
1.543	24.744	24.7502	36.5867	1.4	1.4	0.9	0.9	0.2	0.2
1.544	24.8114	24.819	36.6738	1.4	1.4	0.9	0.9	0.2	0.2
1.545	24.8803	24.8889	36.7613	1.4	1.4	0.9	0.9	0.2	0.2
1.546	24.951	24.9603	36.8497	1.4	1.4	0.9	0.9	0.2	0.2
1.547	25.0227	25.0323	36.9386	1.4	1.4	0.9	0.9	0.2	0.2
1.548	25.0936	25.1036	37.0266	1.4	1.4	0.9	0.9	0.2	0.2
1.549	25.1622	25.1725	37.1121	1.4	1.4	0.9	0.9	0.2	0.2
1.55	25.2289	25.2389	37.1952	1.4	1.4	0.9	0.9	0.2	0.2
1.551	25.2948	25.3045	37.2776	1.4	1.4	0.9	0.9	0.2	0.2
1.552	25.3606	25.3704	37.3604	1.4	1.4	0.9	0.9	0.2	0.2
1.553	25.4274	25.4369	37.4438	1.4	1.4	0.9	0.9	0.2	0.2
1.554	25.4941	25.5029	37.5273	1.4	1.4	0.9	0.9	0.2	0.2
1.555	25.5584	25.5668	37.609	1.4	1.4	0.9	0.9	0.2	0.2
1.556	25.6203	25.6285	37.6884	1.4	1.4	0.9	0.9	0.2	0.2
1.557	25.6808	25.6892	37.7671	1.4	1.4	0.9	0.9	0.2	0.2
1.558	25.7403	25.7489	37.8451	1.4	1.4	0.9	0.9	0.2	0.2
1.559	25.7991	25.8081	37.9215	1.4	1.4	0.9	0.9	0.2	0.2
1.56	25.8574	25.8674	37.997	1.4	1.4	0.9	0.9	0.2	0.2
1.561	25.9148	25.9268	38.0715	1.4	1.4	0.9	0.9	0.2	0.2
1.562	25.9719	25.9851	38.1442	1.4	1.4	0.9	0.9	0.2	0.2
1.563	26.0295	26.0428	38.2164	1.4	1.4	0.9	0.9	0.2	0.2
1.564	26.0866	26.0995	38.2883	1.4	1.4	0.9	0.9	0.2	0.2
1.565	26.1415	26.1545	38.3584	1.4	1.4	0.9	0.9	0.2	0.2
1.566	26.1947	26.2083	38.4265	1.4	1.4	0.9	0.9	0.2	0.2
1.567	26.2471	26.2614	38.4938	1.4	1.4	0.9	0.9	0.2	0.2
1.568	26.2988	26.3131	38.5601	1.4	1.4	0.9	0.9	0.2	0.2
1.569	26.3482	26.3626	38.6252	1.4	1.4	0.9	0.9	0.2	0.2
1.57	26.3953	26.4102	38.689	1.4	1.4	0.9	0.9	0.2	0.2
1.571	26.4419	26.4572	38.7516	1.4	1.4	0.9	0.9	0.2	0.2
1.572	26.4882	26.5038	38.813	1.4	1.4	0.9	0.9	0.2	0.2
1.573	26.5328	26.5497	38.8731	1.4	1.4	0.9	0.9	0.2	0.2
1.574	26.5768	26.5954	38.9329	1.4	1.4	0.9	0.9	0.2	0.2
1.575	26.6218	26.641	38.9931	1.4	1.4	0.9	0.9	0.2	0.2
1.576	26.667	26.686	39.0525	1.4	1.4	0.9	0.9	0.2	0.2
1.577	26.712	26.731	39.1109	1.4	1.4	0.9	0.9	0.2	0.2
1.578	26.7573	26.7772	39.1696	1.4	1.4	0.9	0.9	0.2	0.2
1.579	26.8034	26.8243	39.229	1.4	1.4	0.9	0.9	0.2	0.2
1.58	26.8508	26.8717	39.2891	1.4	1.4	0.9	0.9	0.2	0.2
1.581	26.8991	26.9189	39.3498	1.4	1.4	0.9	0.9	0.2	0.2
1.582	26.9471	26.9652	39.4106	1.4	1.4	0.9	0.9	0.2	0.2
1.583	26.9947	27.011	39.4715	1.4	1.4	0.9	0.9	0.2	0.2
1.584	27.0413	27.0561	39.5316	1.4	1.4	0.9	0.9	0.2	0.2
1.585	27.0867	27.0998	39.59	1.4	1.4	0.9	0.9	0.2	0.2
1.586	27.1325	27.144	39.648	1.4	1.4	0.9	0.9	0.2	0.2
1.587	27.1801	27.1904	39.7076	1.4	1.4	0.9	0.9	0.2	0.2
1.588	27.2287	27.2377	39.7673	1.4	1.4	0.9	0.9	0.2	0.2
1.589	27.2752	27.2829	39.8246	1.4	1.4	0.9	0.9	0.2	0.2
1.59	27.3184	27.3253	39.8794	1.4	1.4	0.9	0.9	0.2	0.2
1.591	27.36	27.3664	39.9329	1.4	1.4	0.9	0.9	0.2	0.2
1.592	27.4011	27.4073	39.9863	1.4	1.4	0.9	0.9	0.2	0.2
1.593	27.4413	27.448	40.0399	1.4	1.4	0.9	0.9	0.2	0.2
1.594	27.4808	27.4888	40.0931	1.4	1.4	0.9	0.9	0.2	0.2
1.595	27.5203	27.5301	40.1446	1.4	1.4	0.9	0.9	0.2	0.2
1.596	27.5598	27.5717	40.1947	1.4	1.4	0.9	0.9	0.2	0.2
1.597	27.5983	27.6125	40.2435	1.4	1.4	0.9	0.9	0.2	0.2
1.598	27.6364	27.6525	40.2919	1.4	1.4	0.9	0.9	0.2	0.2
1.599	27.6758	27.6928	40.3416	1.4	1.4	0.9	0.9	0.2	0.2
1.6	27.715	27.7325	40.391	1.4	1.4	0.9	0.9	0.2	0.2
1.601	27.7514	27.7697	40.4385	1.4	1.4	0.9	0.9	0.2	0.2
1.602	27.7863	27.8055	40.4856	1.4	1.4	0.9	0.9	0.2	0.2
1.603	27.8216	27.8414	40.5329	1.4	1.4	0.9	0.9	0.2	0.2
1.604	27.8568	27.8769	40.5796	1.4	1.4	0.9	0.9	0.2	0.2
1.605	27.8916	27.9123	40.6259	1.4	1.4	0.9	0.9	0.2	0.2
1.606	27.9273	27.9483	40.6718	1.4	1.4	0.9	0.9	0.2	0.2
1.607	27.9636	27.9837	40.7168	1.4	1.4	0.9	0.9	0.2	0.2
1.608	27.9994	28.0177	40.7613	1.4	1.4	0.9	0.9	0.2	0.2
1.609	28.0343	28.0516	40.8058	1.4	1.4	0.9	0.9	0.2	0.2
1.61	28.0695	28.086	40.8501	1.4	1.4	0.9	0.9	0.2	0.2
1.611	28.1047	28.1202	40.8948	1.4	1.4	0.9	0.9	0.2	0.2
1.612	28.1394	28.1544	40.9395	1.4	1.4	0.9	0.9	0.2	0.2
1.613	28.1732	28.1886	40.9837	1.4	1.4	0.9	0.9	0.2	0.2
1.614	28.2067	28.2223	41.0276	1.4	1.4	0.9	0.9	0.2	0.2
1.615	28.2402	28.2559	41.071	1.4	1.4	0.9	0.9	0.2	0.2
1.616	28.2733	28.2892	41.1134	1.4	1.4	0.9	0.9	0.2	0.2
1.617	28.3068	28.3221	41.155	1.4	1.4	0.9	0.9	0.2	0.2
1.618	28.3408	28.3548	41.1957	1.4	1.4	0.9	0.9	0.2	0.2
1.619	28.3738	28.3866	41.2351	1.4	1.4	0.9	0.9	0.2	0.2
1.62	28.4055	28.417	41.2731	1.4	1.4	0.9	0.9	0.2	0.2
1.621	28.4364	28.4465	41.3099	1.4	1.4	0.9	0.9	0.2	0.2
1.622	28.4669	28.4762	41.3466	1.4	1.4	0.9	0.9	0.2	0.2
1.623	28.4967	28.5063	41.3835	1.4	1.4	0.9	0.9	0.2	0.2
1.624	28.5234	28.5341	41.4185	1.4	1.4	0.9	0.9	0.2	0.2
1.625	28.5469	28.5592	41.4522	1.4	1.4	0.9	0.9	0.2	0.2
1.626	28.57	28.584	41.4871	1.4	1.4	0.9	0.9	0.2	0.2
1.627	28.5933	28.6096	41.5221	1.4	1.4	0.9	0.9	0.2	0.2
1.628	28.6157	28.6348	41.5557	1.4	1.4	0.9	0.9	0.2	0.2
1.629	28.6378	28.6598	41.5884	1.4	1.4	0.9	0.9	0.2	0.2
1.63	28.6604	28.6847	41.6203	1.4	1.4	0.9	0.9	0.2	0.2
1.631	28.6835	28.7091	41.651	1.4	1.4	0.9	0.9	0.2	0.2
1.632	28.706	28.7325	41.6811	1.4	1.4	0.9	0.9	0.2	0.2
1.633	28.7267	28.754	41.7117	1.4	1.4	0.9	0.9	0.2	0.2
1.634	28.7468	28.7747	41.7433	1.4	1.4	0.9	0.9	0.2	0.2
1.635	28.7669	28.7951	41.7747	1.4	1.4	0.9	0.9	0.2	0.2
1.636	28.7853	28.8138	41.8044	1.4	1.4	0.9	0.9	0.2	0.2
1.637	28.8021	28.8321	41.8328	1.4	1.4	0.9	0.9	0.2	0.2
1.638	28.8198	28.8513	41.861	1.4	1.4	0.9	0.9	0.2	0.2
1.639	28.8376	28.8709	41.8884	1.4	1.4	0.9	0.9	0.2	0.2
1.64	28.8542	28.8894	41.9148	1.4	1.4	0.9	0.9	0.2	0.2
1.641	28.8715	28.9074	41.9408	1.4	1.4	0.9	0.9	0.2	0.2
1.642	28.8896	28.9248	41.9664	1.4	1.4	0.9	0.9	0.2	0.2
1.643	28.9088	28.9425	41.9929	1.4	1.4	0.9	0.9	0.2	0.2
1.644	28.9285	28.9611	42.0204	1.4	1.4	0.9	0.9	0.2	0.2
1.645	28.9458	28.9785	42.046	1.4	1.4	0.9	0.9	0.2	0.2
1.646	28.9612	28.994	42.0701	1.4	1.4	0.9	0.9	0.2	0.2
1.647	28.9773	29.009	42.096	1.4	1.4	0.9	0.9	0.2	0.2
1.648	28.9946	29.0243	42.1226	1.4	1.4	0.9	0.9	0.2	0.2
1.649	29.0104	29.0382	42.1467	1.4	1.4	0.9	0.9	0.2	0.2
1.65	29.0245	29.0505	42.1684	1.4	1.4	0.9	0.9	0.2	0.2
1.651	29.0383	29.0622	42.1884	1.4	1.4	0.9	0.9	0.2	0.2
1.652	29.0514	29.0724	42.206	1.4	1.4	0.9	0.9	0.2	0.2
1.653	29.0625	29.0805	42.2211	1.4	1.4	0.9	0.9	0.2	0.2
1.654	29.071	29.0869	42.2346	1.4	1.4	0.9	0.9	0.2	0.2
1.655	29.0766	29.0914	42.2472	1.4	1.4	0.9	0.9	0.2	0.2
1.656	29.0809	29.0952	42.259	1.4	1.4	0.9	0.9	0.2	0.2
1.657	29.0852	29.0988	42.2705	1.4	1.4	0.9	0.9	0.2	0.2
1.658	29.0892	29.1024	42.2817	1.4	1.4	0.9	0.9	0.2	0.2
1.659	29.0928	29.1057	42.2924	1.4	1.4	0.9	0.9	0.2	0.2
1.66	29.096	29.1082	42.3025	1.4	1.4	0.9	0.9	0.2	0.2
1.661	29.099	29.1107	42.313	1.4	1.4	0.9	0.9	0.2	0.2
1.662	29.1013	29.1128	42.3223	1.4	1.4	0.9	0.9	0.2	0.2
1.663	29.1023	29.1132	42.3298	1.4	1.4	0.9	0.9	0.2	0.2
1.664	29.1032	29.1127	42.3377	1.4	1.4	0.9	0.9	0.2	0.2
1.665	29.1055	29.1133	42.3476	1.4	1.4	0.9	0.9	0.2	0.2
1.666	29.1077	29.1139	42.3581	1.4	1.4	0.9	0.9	0.2	0.2
1.667	29.1078	29.1129	42.3674	1.4	1.4	0.9	0.9	0.2	0.2
1.668	29.1062	29.1106	42.376	1.4	1.4	0.9	0.9	0.2	0.2
1.669	29.1036	29.1078	42.384	1.4	1.4	0.9	0.9	0.2	0.2
1.67	29.1014	29.1058	42.3917	1.4	1.4	0.9	0.9	0.2	0.2
1.671	29.0998	29.1048	42.4001	1.4	1.4	0.9	0.9	0.2	0.2
1.672	29.0979	29.1042	42.4088	1.4	1.4	0.9	0.9	0.2	0.2
1.673	29.0958	29.105	42.4175	1.4	1.4	0.9	0.9	0.2	0.2
1.674	29.0928	29.1053	42.4252	1.4	1.4	0.9	0.9	0.2	0.2
1.675	29.0889	29.1045	42.4314	1.4	1.4	0.9	0.9	0.2	0.2
1.676	29.0862	29.1036	42.4378	1.4	1.4	0.9	0.9	0.2	0.2
1.677	29.0841	29.102	42.4452	1.4	1.4	0.9	0.9	0.2	0.2
1.678	29.0811	29.0994	42.4533	1.4	1.4	0.9	0.9	0.2	0.2
1.679	29.0774	29.0962	42.4614	1.4	1.4	0.9	0.9	0.2	0.2
1.68	29.0714	29.0905	42.4673	1.4	1.4	0.9	0.9	0.2	0.2
1.681	29.0628	29.0829	42.4707	1.4	1.4	0.9	0.9	0.2	0.2
1.682	29.0545	29.0757	42.4743	1.4	1.4	0.9	0.9	0.2	0.2
1.683	29.0474	29.0698	42.4781	1.4	1.4	0.9	0.9	0.2	0.2
1.684	29.0385	29.0629	42.4793	1.4	1.4	0.9	0.9	0.2	0.2
1.685	29.0268	29.0529	42.4768	1.4	1.4	0.9	0.9	0.2	0.2
1.686	29.0133	29.0398	42.4721	1.4	1.4	0.9	0.9	0.2	0.2
1.687	28.997	29.0235	42.4648	1.4	1.4	0.9	0.9	0.2	0.2
1.688	28.979	29.0058	42.4557	1.4	1.4	0.9	0.9	0.2	0.2
1.689	28.9622	28.9889	42.4465	1.4	1.4	0.9	0.9	0.2	0.2
1.69	28.9464	28.972	42.4371	1.4	1.4	0.9	0.9	0.2	0.2
1.691	28.9305	28.9536	42.4261	1.4	1.4	0.9	0.9	0.2	0.2
1.692	28.9152	28.9351	42.414	1.4	1.4	0.9	0.9	0.2	0.2
1.693	28.9011	28.918	42.4022	1.4	1.4	0.9	0.9	0.2	0.2
1.694	28.8859	28.9	42.3886	1.4	1.4	0.9	0.9	0.2	0.2
1.695	28.8696	28.8808	42.3731	1.4	1.4	0.9	0.9	0.2	0.2
1.696	28.8532	28.8619	42.3576	1.4	1.4	0.9	0.9	0.2	0.2
1.697	28.8363	28.8431	42.3421	1.4	1.4	0.9	0.9	0.2	0.2
1.698	28.8183	28.822	42.3258	1.4	1.4	0.9	0.9	0.2	0.2
1.699	28.7999	28.7987	42.3092	1.4	1.4	0.9	0.9	0.2	0.2
1.7	28.7834	28.7768	42.2936	1.4	1.4	0.9	0.9	0.2	0.2
1.701	28.7682	28.7566	42.2791	1.4	1.4	0.9	0.9	0.2	0.2
1.702	28.7522	28.7366	42.2629	1.4	1.4	0.9	0.9	0.2	0.2
1.703	28.7353	28.7171	42.245	1.4	1.4	0.9	0.9	0.2	0.2
1.704	28.7194	28.6985	42.2273	1.4	1.4	0.9	0.9	0.2	0.2
1.705	28.7047	28.6806	42.2102	1.4	1.4	0.9	0.9	0.2	0.2
1.706	28.6905	28.6635	42.1947	1.4	1.4	0.9	0.9	0.2	0.2
1.707	28.6759	28.6471	42.18	1.4	1.4	0.9	0.9	0.2	0.2
1.708	28.6593	28.6306	42.1636	1.4	1.4	0.9	0.9	0.2	0.2
1.709	28.6409	28.6138	42.1457	1.4	1.4	0.9	0.9	0.2	0.2
1.71	28.6223	28.5958	42.1273	1.4	1.4	0.9	0.9	0.2	0.2
1.711	28.6036	28.5766	42.1092	1.4	1.4	0.9	0.9	0.2	0.2
1.712	28.5838	28.5573	42.091	1.4	1.4	0.9	0.9	0.2	0.2
1.713	28.5624	28.5372	42.0715	1.4	1.4	0.9	0.9	0.2	0.2
1.714	28.5392	28.5163	42.0513	1.4	1.4	0.9	0.9	0.2	0.2
1.715	28.5142	28.4946	42.0301	1.4	1.4	0.9	0.9	0.2	0.2
1.716	28.4869	28.4712	42.0079	1.4	1.4	0.9	0.9	0.2	0.2
1.717	28.4579	28.4463	41.9851	1.4	1.4	0.9	0.9	0.2	0.2
1.718	28.4297	28.4215	41.9624	1.4	1.4	0.9	0.9	0.2	0.2
1.719	28.4014	28.3962	41.9393	1.4	1.4	0.9	0.9	0.2	0.2
1.72	28.3698	28.3675	41.9126	1.4	1.4	0.9	0.9	0.2	0.2
1.721	28.3353	28.3352	41.8826	1.4	1.4	0.9	0.9	0.2	0.2
1.722	28.2999	28.3016	41.8524	1.4	1.4	0.9	0.9	0.2	0.2
1.723	28.2652	28.2685	41.8224	1.4	1.4	0.9	0.9	0.2	0.2
1.724	28.2342	28.2378	41.7929	1.4	1.4	0.9	0.9	0.2	0.2
1.725	28.2054	28.2079	41.7629	1.4	1.4	0.9	0.9	0.2	0.2
1.726	28.1748	28.1761	41.7305	1.4	1.4	0.9	0.9	0.2	0.2
1.727	28.1431	28.1432	41.6969	1.4	1.4	0.9	0.9	0.2	0.2
1.728	28.1135	28.1124	41.6648	1.4	1.4	0.9	0.9	0.2	0.2
1.729	28.0851	28.0827	41.6335	1.4	1.4	0.9	0.9	0.2	0.2
1.73	28.0562	28.0524	41.6019	1.4	1.4	0.9	0.9	0.2	0.2
1.731	28.0278	28.0224	41.571	1.4	1.4	0.9	0.9	0.2	0.2
1.732	28.0009	27.9934	41.5419	1.4	1.4	0.9	0.9	0.2	0.2
1.733	27.9746	27.9646	41.5135	1.4	1.4	0.9	0.9	0.2	0.2
1.734	27.9476	27.935	41.4842	1.4	1.4	0.9	0.9	0.2	0.2
1.735	27.921	27.9063	41.455	1.4	1.4	0.9	0.9	0.2	0.2
1.736	27.8957	27.8802	41.4266	1.4	1.4	0.9	0.9	0.2	0.2
1.737	27.8711	27.8558	41.3983	1.4	1.4	0.9	0.9	0.2	0.2
1.738	27.8478	27.8329	41.3701	1.4	1.4	0.9	0.9	0.2	0.2
1.739	27.8255	27.8111	41.3427	1.4	1.4	0.9	0.9	0.2	0.2
1.74	27.8037	27.7897	41.3164	1.4	1.4	0.9	0.9	0.2	0.2
1.741	27.7815	27.7684	41.2908	1.4	1.4	0.9	0.9	0.2	0.2
1.742	27.7582	27.7475	41.265	1.4	1.4	0.9	0.9	0.2	0.2
1.743	27.7348	27.7275	41.2393	1.4	1.4	0.9	0.9	0.2	0.2
1.744	27.7109	27.7076	41.2132	1.4	1.4	0.9	0.9	0.2	0.2
1.745	27.6851	27.6854	41.1861	1.4	1.4	0.9	0.9	0.2	0.2
1.746	27.6573	27.6603	41.1579	1.4	1.4	0.9	0.9	0.2	0.2
1.747	27.6278	27.6339	41.128	1.4	1.4	0.9	0.9	0.2	0.2
1.748	27.597	27.6066	41.0961	1.4	1.4	0.9	0.9	0.2	0.2
1.749	27.5634	27.5756	41.0623	1.4	1.4	0.9	0.9	0.2	0.2
1.75	27.5267	27.5401	41.0266	1.4	1.4	0.9	0.9	0.2	0.2
1.751	27.4896	27.5025	40.9901	1.4	1.4	0.9	0.9	0.2	0.2
1.752	27.4516	27.4631	40.9531	1.4	1.4	0.9	0.9	0.2	0.2
1.753	27.4111	27.4228	40.916	1.4	1.4	0.9	0.9	0.2	0.2
1.754	27.3689	27.3826	40.8789	1.4	1.4	0.9	0.9	0.2	0.2
1.755	27.3254	27.3408	40.8397	1.4	1.4	0.9	0.9	0.2	0.2
1.756	27.2808	27.2971	40.798	1.4	1.4	0.9	0.9	0.2	0.2
1.757	27.2389	27.2554	40.7576	1.4	1.4	0.9	0.9	0.2	0.2
1.758	27.1995	27.2157	40.7197	1.4	1.4	0.9	0.9	0.2	0.2
1.759	27.1586	27.1736	40.6813	1.4	1.4	0.9	0.9	0.2	0.2
1.76	27.1171	27.1301	40.6424	1.4	1.4	0.9	0.9	0.2	0.2
1.761	27.0771	27.0876	40.6036	1.4	1.4	0.9	0.9	0.2	0.2
1.762	27.0379	27.0459	40.5644	1.4	1.4	0.9	0.9	0.2	0.2
1.763	27.0002	27.0053	40.5252	1.4	1.4	0.9	0.9	0.2	0.2
1.764	26.9652	26.9669	40.4875	1.4	1.4	0.9	0.9	0.2	0.2
1.765	26.9346	26.9328	40.4528	1.4	1.4	0.9	0.9	0.2	0.2
1.766	26.9067	26.9012	40.4199	1.4	1.4	0.9	0.9	0.2	0.2
1.767	26.8749	26.8657	40.3841	1.4	1.4	0.9	0.9	0.2	0.2
1.768	26.8417	26.8288	40.3472	1.4	1.4	0.9	0.9	0.2	0.2
1.769	26.8118	26.795	40.3122	1.4	1.4	0.9	0.9	0.2	0.2
1.77	26.783	26.7624	40.278	1.4	1.4	0.9	0.9	0.2	0.2
1.771	26.7551	26.7308	40.2442	1.4	1.4	0.9	0.9	0.2	0.2
1.772	26.7297	26.7025	40.2119	1.4	1.4	0.9	0.9	0.2	0.2
1.773	26.7068	26.678	40.1824	1.4	1.4	0.9	0.9	0.2	0.2
1.774	26.6849	26.6553	40.1549	1.4	1.4	0.9	0.9	0.2	0.2
1.775	26.662	26.633	40.1283	1.4	1.4	0.9	0.9	0.2	0.2
1.776	26.6396	26.6113	40.1028	1.4	1.4	0.9	0.9	0.2	0.2
1.777	26.6195	26.5902	40.0774	1.4	1.4	0.9	0.9	0.2	0.2
1.778	26.6034	26.5722	40.0548	1.4	1.4	0.9	0.9	0.2	0.2
1.779	26.5907	26.5581	40.0367	1.4	1.4	0.9	0.9	0.2	0.2
1.78	26.5773	26.5427	40.0188	1.4	1.4	0.9	0.9	0.2	0.2
1.781	26.5623	26.5243	39.9993	1.4	1.4	0.9	0.9	0.2	0.2
1.782	26.5488	26.5065	39.9804	1.4	1.4	0.9	0.9	0.2	0.2
1.783	26.5379	26.4912	39.9631	1.4	1.4	0.9	0.9	0.2	0.2
1.784	26.5271	26.4768	39.9472	1.4	1.4	0.9	0.9	0.2	0.2
1.785	26.5112	26.4582	39.9323	1.4	1.4	0.9	0.9	0.2	0.2
1.786	26.5014	26.4477	39.9249	1.4	1.4	0.9	0.9	0.2	0.2
1.787	26.4966	26.4442	39.9244	1.4	1.4	0.9	0.9	0.2	0.2
1.788	26.4891	26.4344	39.9174	1.4	1.4	0.9	0.9	0.2	0.2
1.789	26.4798	26.4201	39.9054	1.4	1.4	0.9	0.9	0.2	0.2
1.79	26.4698	26.4064	39.8948	1.4	1.4	0.9	0.9	0.2	0.2
1.791	26.4609	26.3955	39.8873	1.4	1.4	0.9	0.9	0.2	0.2
1.792	26.4557	26.3932	39.8844	1.4	1.4	0.9	0.9	0.2	0.2
1.793	26.4559	26.4029	39.8878	1.4	1.4	0.9	0.9	0.2	0.2
1.794	26.4582	26.4159	39.8947	1.4	1.4	0.9	0.9	0.2	0.2
1.795	26.4595	26.4218	39.8987	1.4	1.4	0.9	0.9	0.2	0.2
1.796	26.463	26.4267	39.9009	1.4	1.4	0.9	0.9	0.2	0.2
1.797	26.4671	26.4369	39.9039	1.4	1.4	0.9	0.9	0.2	0.2
1.798	26.4704	26.45	39.9082	1.4	1.4	0.9	0.9	0.2	0.2
1.799	26.477	26.4666	39.9149	1.4	1.4	0.9	0.9	0.2	0.2
1.8	26.4891	26.4878	39.925	1.4	1.4	0.9	0.9	0.2	0.2
1.801	26.5038	26.5081	39.9373	1.4	1.4	0.9	0.9	0.2	0.2
1.802	26.5143	26.5196	39.9474	1.4	1.4	0.9	0.9	0.2	0.2
1.803	26.5211	26.526	39.9562	1.4	1.4	0.9	0.9	0.2	0.2
1.804	26.5354	26.5442	39.9733	1.4	1.4	0.9	0.9	0.2	0.2
1.805	26.5561	26.5724	39.9978	1.4	1.4	0.9	0.9	0.2	0.2
1.806	26.5805	26.605	40.0267	1.4	1.4	0.9	0.9	0.2	0.2
1.807	26.6076	26.6405	40.0587	1.4	1.4	0.9	0.9	0.2	0.2
1.808	26.6276	26.6683	40.0853	1.4	1.4	0.9	0.9	0.2	0.2
1.809	26.638	26.6849	40.1043	1.4	1.4	0.9	0.9	0.2	0.2
1.81	26.644	26.6932	40.1201	1.4	1.4	0.9	0.9	0.2	0.2
1.811	26.6514	26.6995	40.1386	1.4	1.4	0.9	0.9	0.2	0.2
1.812	26.6614	26.7058	40.1583	1.4	1.4	0.9	0.9	0.2	0.2
1.813	26.671	26.7099	40.1736	1.4	1.4	0.9	0.9	0.2	0.2
1.814	26.6791	26.712	40.1867	1.4	1.4	0.9	0.9	0.2	0.2
1.815	26.688	26.7133	40.2024	1.4	1.4	0.9	0.9	0.2	0.2
1.816	26.6962	26.7121	40.218	1.4	1.4	0.9	0.9	0.2	0.2
1.817	26.7026	26.7135	40.2352	1.4	1.4	0.9	0.9	0.2	0.2
1.818	26.7076	26.7186	40.255	1.4	1.4	0.9	0.9	0.2	0.2
1.819	26.7124	26.7237	40.2739	1.4	1.4	0.9	0.9	0.2	0.2
1.82	26.7188	26.7273	40.2892	1.4	1.4	0.9	0.9	0.2	0.2
1.821	26.7255	26.7281	40.3017	1.4	1.4	0.9	0.9	0.2	0.2
1.822	26.7348	26.7287	40.313	1.4	1.4	0.9	0.9	0.2	0.2
1.823	26.737	26.7186	40.3165	1.4	1.4	0.9	0.9	0.2	0.2
1.824	26.7355	26.7015	40.3149	1.4	1.4	0.9	0.9	0.2	0.2
1.825	26.7354	26.6904	40.3197	1.4	1.4	0.9	0.9	0.2	0.2
1.826	26.734	26.685	40.3284	1.4	1.4	0.9	0.9	0.2	0.2
1.827	26.7319	26.6825	40.3351	1.4	1.4	0.9	0.9	0.2	0.2
1.828	26.7364	26.6885	40.3431	1.4	1.4	0.9	0.9	0.2	0.2
1.829	26.7483	26.7009	40.3542	1.4	1.4	0.9	0.9	0.2	0.2
1.83	26.7551	26.7047	40.3585	1.4	1.4	0.9	0.9	0.2	0.2
1.831	26.7398	26.6878	40.3445	1.4	1.4	0.9	0.9	0.2	0.2
1.832	26.7103	26.6643	40.3218	1.4	1.4	0.9	0.9	0.2	0.2
1.833	26.6902	26.6548	40.3086	1.4	1.4	0.9	0.9	0.2	0.2
1.834	26.6793	26.6516	40.3003	1.4	1.4	0.9	0.9	0.2	0.2
1.835	26.6708	26.6487	40.29	1.4	1.4	0.9	0.9	0.2	0.2
1.836	26.6591	26.6424	40.2755	1.4	1.4	0.9	0.9	0.2	0.2
1.837	26.6427	26.6298	40.2594	1.4	1.4	0.9	0.9	0.2	0.2
1.838	26.6233	26.6152	40.2442	1.4	1.4	0.9	0.9	0.2	0.2
1.839	26.603	26.6041	40.2278	1.4	1.4	0.9	0.9	0.2	0.2
1.84	26.5798	26.593	40.2049	1.4	1.4	0.9	0.9	0.2	0.2
1.841	26.5493	26.571	40.1706	1.4	1.4	0.9	0.9	0.2	0.2
1.842	26.514	26.5413	40.1302	1.4	1.4	0.9	0.9	0.2	0.2
1.843	26.4679	26.5	40.0785	1.4	1.4	0.9	0.9	0.2	0.2
1.844	26.4046	26.4384	40.0071	1.4	1.4	0.9	0.9	0.2	0.2
1.845	26.334	26.3665	39.9247	1.4	1.4	0.9	0.9	0.2	0.2
1.846	26.2676	26.296	39.8454	1.4	1.4	0.9	0.9	0.2	0.2
1.847	26.205	26.2281	39.7689	1.4	1.4	0.9	0.9	0.2	0.2
1.848	26.1349	26.1531	39.6833	1.4	1.4	0.9	0.9	0.2	0.2
1.849	26.0505	26.0641	39.5819	1.4	1.4	0.9	0.9	0.2	0.2
1.85	25.9578	25.9661	39.4728	1.4	1.4	0.9	0.9	0.2	0.2
1.851	25.8655	25.8655	39.3621	1.4	1.4	0.9	0.9	0.2	0.2
1.852	25.7678	25.7592	39.2425	1.4	1.4	0.9	0.9	0.2	0.2
1.853	25.666	25.6546	39.1183	1.4	1.4	0.9	0.9	0.2	0.2
1.854	25.5612	25.5465	38.9866	1.4	1.4	0.9	0.9	0.2	0.2
1.855	25.4458	25.4249	38.8395	1.4	1.4	0.9	0.9	0.2	0.2
1.856	25.3144	25.2869	38.6753	1.4	1.4	0.9	0.9	0.2	0.2
1.857	25.1719	25.1355	38.4992	1.4	1.4	0.9	0.9	0.2	0.2
1.858	25.0251	24.9747	38.3151	1.4	1.4	0.9	0.9	0.2	0.2
1.859	24.8724	24.8074	38.1201	1.4	1.4	0.9	0.9	0.2	0.2
1.86	24.7075	24.6358	37.914	1.4	1.4	0.9	0.9	0.2	0.2
1.861	24.5258	24.4537	37.6889	1.4	1.4	0.9	0.9	0.2	0.2
1.862	24.3296	24.257	37.4418	1.4	1.4	0.9	0.9	0.2	0.2
1.863	24.1207	24.0476	37.1743	1.4	1.4	0.9	0.9	0.2	0.2
1.864	23.9029	23.8315	36.8919	1.4	1.4	0.9	0.9	0.2	0.2
1.865	23.6681	23.6015	36.587	1.4	1.4	0.9	0.9	0.2	0.2
1.866	23.4029	23.3463	36.2479	1.4	1.4	0.9	0.9	0.2	0.2
1.867	23.1109	23.0687	35.8761	1.4	1.4	0.9	0.9	0.2	0.2
1.868	22.8169	22.7877	35.4882	1.4	1.4	0.9	0.9	0.2	0.2
1.869	22.5298	22.5085	35.0897	1.4	1.4	0.9	0.9	0.2	0.2
1.87	22.2243	22.2095	34.661	1.4	1.4	0.9	0.9	0.2	0.2
1.871	21.8861	21.8785	34.1922	1.4	1.4	0.9	0.9	0.2	0.2
1.872	21.5233	21.5217	33.6898	1.4	1.4	0.9	0.9	0.2	0.2
1.873	21.1399	21.1429	33.1545	1.4	1.4	0.9	0.9	0.2	0.2
1.874	20.7384	20.7451	32.5857	1.4	1.4	0.9	0.9	0.2	0.2
1.875	20.3267	20.3348	31.9874	1.4	1.4	0.9	0.9	0.2	0.2
1.876	19.9093	19.916	31.3657	1.4	1.4	0.9	0.9	0.2	0.2
1.877	19.4852	19.4898	30.7244	1.4	1.4	0.9	0.9	0.2	0.2
1.878	19.0526	19.0553	30.0626	1.4	1.4	0.9	0.9	0.2	0.2
1.879	18.6106	18.6087	29.3773	1.4	1.4	0.9	0.9	0.2	0.2
1.88	18.1621	18.1499	28.6721	1.4	1.4	0.9	0.9	0.2	0.2
1.881	17.7135	17.688	27.9576	1.4	1.4	0.9	0.9	0.2	0.2
1.882	17.2655	17.2291	27.2367	1.4	1.4	0.9	0.9	0.2	0.2
1.883	16.8145	16.7693	26.505	1.4	1.4	0.9	0.9	0.2	0.2
1.884	16.355	16.301	25.7567	1.4	1.4	0.9	0.9	0.2	0.2
1.885	15.894	15.8304	24.9991	1.4	1.4	0.9	0.9	0.2	0.2
1.886	15.4485	15.373	24.2462	1.4	1.4	0.9	0.9	0.2	0.2
1.887	15.0239	14.9348	23.5037	1.4	1.4	0.9	0.9	0.2	0.2
1.888	14.6075	14.508	22.7665	1.4	1.4	0.9	0.9	0.2	0.2
1.889	14.1912	14.0867	22.0314	1.4	1.4	0.9	0.9	0.2	0.2
1.89	13.776	13.6667	21.2975	1.4	1.4	0.9	0.9	0.2	0.2
1.891	13.3722	13.2553	20.5726	1.4	1.4	0.9	0.9	0.2	0.2
1.892	12.9883	12.8607	19.8651	1.4	1.4	0.9	0.9	0.2	0.2
1.893	12.6302	12.4918	19.1831	1.4	1.4	0.9	0.9	0.2	0.2
1.894	12.2922	12.1474	18.5266	1.4	1.4	0.9	0.9	0.2	0.2
1.895	11.9568	11.812	17.8841	1.4	1.4	0.9	0.9	0.2	0.2
1.896	11.6239	11.4833	17.2555	1.4	1.4	0.9	0.9	0.2	0.2
1.897	11.3077	11.1684	16.6469	1.4	1.4	0.9	0.9	0.2	0.2
1.898	11.0155	10.8746	16.0653	1.4	1.4	0.9	0.9	0.2	0.2
1.899	10.7425	10.6042	15.5126	1.4	1.4	0.9	0.9	0.2	0.2
1.9	10.4863	10.3568	14.9914	1.4	1.4	0.9	0.9	0.2	0.2
1.901	10.2446	10.1272	14.4969	1.4	1.4	0.9	0.9	0.2	0.2
1.902	10.0119	9.906	14.0217	1.4	1.4	0.9	0.9	0.2	0.2
1.903	9.793	9.696	13.5709	1.4	1.4	0.9	0.9	0.2	0.2
1.904	9.5972	9.5046	13.152	1.4	1.4	0.9	0.9	0.2	0.2
1.905	9.4208	9.3298	12.7631	1.4	1.4	0.9	0.9	0.2	0.2
1.906	9.251	9.1627	12.3952	1.4	1.4	0.9	0.9	0.2	0.2
1.907	9.0847	9.0002	12.0456	1.4	1.4	0.9	0.9	0.2	0.2
1.908	8.9333	8.8532	11.7211	1.4	1.4	0.9	0.9	0.2	0.2
1.909	8.7973	8.7226	11.4214	1.4	1.4	0.9	0.9	0.2	0.2
1.91	8.681	8.6104	11.1523	1.4	1.4	0.9	0.9	0.2	0.2
1.911	8.5923	8.5225	10.9205	1.4	1.4	0.9	0.9	0.2	0.2
1.912	8.5216	8.4514	10.7176	1.4	1.4	0.9	0.9	0.2	0.2
1.913	8.4494	8.3819	10.5273	1.4	1.4	0.9	0.9	0.2	0.2
1.914	8.3782	8.315	10.3516	1.4	1.4	0.9	0.9	0.2	0.2
1.915	8.3109	8.2493	10.1895	1.4	1.4	0.9	0.9	0.2	0.2
1.916	8.2478	8.1854	10.0404	1.4	1.4	0.9	0.9	0.2	0.2
1.917	8.1943	8.1338	9.9127	1.4	1.4	0.9	0.9	0.2	0.2
1.918	8.1515	8.0981	9.809	1.4	1.4	0.9	0.9	0.2	0.2
1.919	8.1157	8.068	9.7212	1.4	1.4	0.9	0.9	0.2	0.2
1.92	8.0792	8.0329	9.6366	1.4	1.4	0.9	0.9	0.2	0.2
1.921	8.0474	7.9994	9.5599	1.4	1.4	0.9	0.9	0.2	0.2
1.922	8.0252	7.9718	9.497	1.4	1.4	0.9	0.9	0.2	0.2
1.923	8.0061	7.9453	9.4435	1.4	1.4	0.9	0.9	0.2	0.2
1.924	7.9832	7.919	9.3921	1.4	1.4	0.9	0.9	0.2	0.2
1.925	7.96	7.8951	9.345	1.4	1.4	0.9	0.9	0.2	0.2
1.926	7.9472	7.8788	9.3109	1.4	1.4	0.9	0.9	0.2	0.2
1.927	7.9438	7.8691	9.2893	1.4	1.4	0.9	0.9	0.2	0.2
1.928	7.9393	7.8626	9.2743	1.4	1.4	0.9	0.9	0.2	0.2
1.929	7.9325	7.8608	9.2647	1.4	1.4	0.9	0.9	0.2	0.2
1.93	7.9248	7.8587	9.2612	1.4	1.4	0.9	0.9	0.2	0.2
1.931	7.9184	7.854	9.2659	1.4	1.4	0.9	0.9	0.2	0.2
1.932	7.9199	7.8566	9.2841	1.4	1.4	0.9	0.9	0.2	0.2
1.933	7.9238	7.8632	9.307	1.4	1.4	0.9	0.9	0.2	0.2
1.934	7.9274	7.871	9.3338	1.4	1.4	0.9	0.9	0.2	0.2
1.935	7.9373	7.8872	9.3758	1.4	1.4	0.9	0.9	0.2	0.2
1.936	7.9534	7.9106	9.4313	1.4	1.4	0.9	0.9	0.2	0.2
1.937	7.9666	7.9296	9.4857	1.4	1.4	0.9	0.9	0.2	0.2
1.938	7.9741	7.9407	9.5341	1.4	1.4	0.9	0.9	0.2	0.2
1.939	7.9902	7.9593	9.5925	1.4	1.4	0.9	0.9	0.2	0.2
1.94	8.0221	7.9922	9.6683	1.4	1.4	0.9	0.9	0.2	0.2
1.941	8.0593	8.0311	9.7532	1.4	1.4	0.9	0.9	0.2	0.2
1.942	8.092	8.0705	9.8382	1.4	1.4	0.9	0.9	0.2	0.2
1.943	8.1233	8.1117	9.9251	1.4	1.4	0.9	0.9	0.2	0.2
1.944	8.1599	8.1542	10.0186	1.4	1.4	0.9	0.9	0.2	0.2
1.945	8.2027	8.1988	10.1194	1.4	1.4	0.9	0.9	0.2	0.2
1.946	8.2568	8.252	10.2352	1.4	1.4	0.9	0.9	0.2	0.2
1.947	8.3182	8.3109	10.3616	1.4	1.4	0.9	0.9	0.2	0.2
1.948	8.372	8.3593	10.4788	1.4	1.4	0.9	0.9	0.2	0.2
1.949	8.4144	8.3929	10.5825	1.4	1.4	0.9	0.9	0.2	0.2
1.95	8.4588	8.4286	10.6924	1.4	1.4	0.9	0.9	0.2	0.2
1.951	8.5053	8.4711	10.8131	1.4	1.4	0.9	0.9	0.2	0.2
1.952	8.5535	8.5175	10.9402	1.4	1.4	0.9	0.9	0.2	0.2
1.953	8.6019	8.5599	11.0656	1.4	1.4	0.9	0.9	0.2	0.2
1.954	8.6468	8.5943	11.1844	1.4	1.4	0.9	0.9	0.2	0.2
1.955	8.6906	8.6263	11.297	1.4	1.4	0.9	0.9	0.2	0.2
1.956	8.7354	8.6581	11.4069	1.4	1.4	0.9	0.9	0.2	0.2
1.957	8.7841	8.6907	11.5229	1.4	1.4	0.9	0.9	0.2	0.2
1.958	8.8362	8.7248	11.6447	1.4	1.4	0.9	0.9	0.2	0.2
1.959	8.8843	8.7589	11.7615	1.4	1.4	0.9	0.9	0.2	0.2
1.96	8.9276	8.7945	11.8717	1.4	1.4	0.9	0.9	0.2	0.2
1.961	8.9708	8.8302	11.9864	1.4	1.4	0.9	0.9	0.2	0.2
1.962	9.0146	8.8659	12.1089	1.4	1.4	0.9	0.9	0.2	0.2
1.963	9.0577	8.905	12.2331	1.4	1.4	0.9	0.9	0.2	0.2
1.964	9.1022	8.9509	12.3546	1.4	1.4	0.9	0.9	0.2	0.2
1.965	9.1514	9.0033	12.4806	1.4	1.4	0.9	0.9	0.2	0.2
1.966	9.2041	9.0587	12.6207	1.4	1.4	0.9	0.9	0.2	0.2
1.967	9.2571	9.1141	12.768	1.4	1.4	0.9	0.9	0.2	0.2
1.968	9.3129	9.1678	12.9062	1.4	1.4	0.9	0.9	0.2	0.2
1.969	9.3705	9.2201	13.0359	1.4	1.4	0.9	0.9	0.2	0.2
1.97	9.4227	9.2748	13.1704	1.4	1.4	0.9	0.9	0.2	0.2
1.971	9.471	9.3344	13.3126	1.4	1.4	0.9	0.9	0.2	0.2
1.972	9.517	9.3933	13.4514	1.4	1.4	0.9	0.9	0.2	0.2
1.973	9.563	9.45	13.584	1.4	1.4	0.9	0.9	0.2	0.2
1.974	9.6152	9.5109	13.7201	1.4	1.4	0.9	0.9	0.2	0.2
1.975	9.6778	9.5812	13.8664	1.4	1.4	0.9	0.9	0.2	0.2
1.976	9.7471	9.6582	14.0207	1.4	1.4	0.9	0.9	0.2	0.2
1.977	9.8192	9.7393	14.1799	1.4	1.4	0.9	0.9	0.2	0.2
1.978	9.8935	9.8219	14.342	1.4	1.4	0.9	0.9	0.2	0.2
1.979	9.9675	9.8969	14.5054	1.4	1.4	0.9	0.9	0.2	0.2
1.98	10.0436	9.9664	14.6719	1.4	1.4	0.9	0.9	0.2	0.2
1.981	10.1285	10.0472	14.8453	1.4	1.4	0.9	0.9	0.2	0.2
1.982	10.2211	10.1389	15.0237	1.4	1.4	0.9	0.9	0.2	0.2
1.983	10.3063	10.2228	15.1922	1.4	1.4	0.9	0.9	0.2	0.2
1.984	10.3817	10.2948	15.3501	1.4	1.4	0.9	0.9	0.2	0.2
1.985	10.4502	10.3607	15.5026	1.4	1.4	0.9	0.9	0.2	0.2
1.986	10.5116	10.4237	15.6497	1.4	1.4	0.9	0.9	0.2	0.2
1.987	10.5717	10.4861	15.7934	1.4	1.4	0.9	0.9	0.2	0.2
1.988	10.6423	10.5522	15.9415	1.4	1.4	0.9	0.9	0.2	0.2
1.989	10.7199	10.62	16.0928	1.4	1.4	0.9	0.9	0.2	0.2
1.99	10.7855	10.6813	16.2357	1.4	1.4	0.9	0.9	0.2	0.2
1.991	10.8431	10.7396	16.3733	1.4	1.4	0.9	0.9	0.2	0.2
1.992	10.9092	10.8012	16.5159	1.4	1.4	0.9	0.9	0.2	0.2
1.993	10.9821	10.8644	16.6636	1.4	1.4	0.9	0.9	0.2	0.2
1.994	11.0432	10.9253	16.8085	1.4	1.4	0.9	0.9	0.2	0.2
1.995	11.0876	10.9809	16.9458	1.4	1.4	0.9	0.9	0.2	0.2
1.996	11.1347	11.0409	17.0879	1.4	1.4	0.9	0.9	0.2	0.2
1.997	11.1966	11.1132	17.2433	1.4	1.4	0.9	0.9	0.2	0.2
1.998	11.2626	11.1893	17.4023	1.4	1.4	0.9	0.9	0.2	0.2
1.999	11.3227	11.2607	17.5549	1.4	1.4	0.9	0.9	0.2	0.2
2	11.3875	11.3364	17.7106	1.4	1.4	0.9	0.9	0.2	0.2
2.001	11.4722	11.4314	17.8879	1.4	1.4	0.9	0.9	0.2	0.2
2.002	11.5671	11.5357	18.0769	1.4	1.4	0.9	0.9	0.2	0.2
2.003	11.6475	11.6218	18.2419	1.4	1.4	0.9	0.9	0.2	0.2
2.004	11.7182	11.6948	18.3872	1.4	1.4	0.9	0.9	0.2	0.2
2.005	11.7848	11.7732	18.5407	1.4	1.4	0.9	0.9	0.2	0.2
2.006	11.8445	11.8564	18.7023	1.4	1.4	0.9	0.9	0.2	0.2
2.007	11.9165	11.9462	18.8664	1.4	1.4	0.9	0.9	0.2	0.2
2.008	12.0077	12.043	19.0334	1.4	1.4	0.9	0.9	0.2	0.2
2.009	12.1035	12.1428	19.2038	1.4	1.4	0.9	0.9	0.2	0.2
2.01	12.1945	12.2448	19.3767	1.4	1.4	0.9	0.9	0.2	0.2
2.011	12.2839	12.3445	19.5474	1.4	1.4	0.9	0.9	0.2	0.2
2.012	12.3759	12.436	19.7135	1.4	1.4	0.9	0.9	0.2	0.2
2.013	12.4736	12.5276	19.8823	1.4	1.4	0.9	0.9	0.2	0.2
2.014	12.5803	12.6311	20.0631	1.4	1.4	0.9	0.9	0.2	0.2
2.015	12.6872	12.7364	20.2436	1.4	1.4	0.9	0.9	0.2	0.2
2.016	12.7811	12.8274	20.3961	1.4	1.4	0.9	0.9	0.2	0.2
2.017	12.8666	12.91	20.5272	1.4	1.4	0.9	0.9	0.2	0.2
2.018	12.9523	12.9915	20.6609	1.4	1.4	0.9	0.9	0.2	0.2
2.019	13.0364	13.0696	20.7975	1.4	1.4	0.9	0.9	0.2	0.2
2.02	13.1212	13.1453	20.927	1.4	1.4	0.9	0.9	0.2	0.2
2.021	13.2029	13.2153	21.0444	1.4	1.4	0.9	0.9	0.2	0.2
2.022	13.2786	13.2836	21.168	1.4	1.4	0.9	0.9	0.2	0.2
2.023	13.3577	13.3619	21.3144	1.4	1.4	0.9	0.9	0.2	0.2
2.024	13.445	13.4512	21.4698	1.4	1.4	0.9	0.9	0.2	0.2
2.025	13.5224	13.5327	21.6037	1.4	1.4	0.9	0.9	0.2	0.2
2.026	13.5794	13.5932	21.7125	1.4	1.4	0.9	0.9	0.2	0.2
2.027	13.6377	13.6442	21.8215	1.4	1.4	0.9	0.9	0.2	0.2
2.028	13.7057	13.6986	21.9396	1.4	1.4	0.9	0.9	0.2	0.2
2.029	13.762	13.7517	22.0565	1.4	1.4	0.9	0.9	0.2	0.2
2.03	13.7998	13.7961	22.1669	1.4	1.4	0.9	0.9	0.2	0.2
2.031	13.8406	13.8315	22.2722	1.4	1.4	0.9	0.9	0.2	0.2
2.032	13.896	13.8681	22.3794	1.4	1.4	0.9	0.9	0.2	0.2
2.033	13.9508	13.9094	22.4866	1.4	1.4	0.9	0.9	0.2	0.2
2.034	13.9931	13.947	22.5883	1.4	1.4	0.9	0.9	0.2	0.2
2.035	14.0359	13.9846	22.6894	1.4	1.4	0.9	0.9	0.2	0.2
2.036	14.0962	14.0337	22.8005	1.4	1.4	0.9	0.9	0.2	0.2
2.037	14.1634	14.0884	22.918	1.4	1.4	0.9	0.9	0.2	0.2
2.038	14.2106	14.1278	23.0226	1.4	1.4	0.9	0.9	0.2	0.2
2.039	14.2415	14.1558	23.1145	1.4	1.4	0.9	0.9	0.2	0.2
2.04	14.2916	14.2098	23.2238	1.4	1.4	0.9	0.9	0.2	0.2
2.041	14.3609	14.2902	23.3505	1.4	1.4	0.9	0.9	0.2	0.2
2.042	14.4255	14.3632	23.4694	1.4	1.4	0.9	0.9	0.2	0.2
2.043	14.4871	14.4254	23.5793	1.4	1.4	0.9	0.9	0.2	0.2
2.044	14.56	14.4919	23.6918	1.4	1.4	0.9	0.9	0.2	0.2
2.045	14.6408	14.5674	23.8074	1.4	1.4	0.9	0.9	0.2	0.2
2.046	14.7189	14.6473	23.9267	1.4	1.4	0.9	0.9	0.2	0.2
2.047	14.7963	14.7233	24.0482	1.4	1.4	0.9	0.9	0.2	0.2
2.048	14.8868	14.8055	24.1739	1.4	1.4	0.9	0.9	0.2	0.2
2.049	14.9921	14.9061	24.3048	1.4	1.4	0.9	0.9	0.2	0.2
2.05	15.093	15.01	24.4317	1.4	1.4	0.9	0.9	0.2	0.2
2.051	15.1644	15.086	24.5345	1.4	1.4	0.9	0.9	0.2	0.2
2.052	15.2142	15.1393	24.6181	1.4	1.4	0.9	0.9	0.2	0.2
2.053	15.2856	15.2153	24.7268	1.4	1.4	0.9	0.9	0.2	0.2
2.054	15.3781	15.3161	24.8614	1.4	1.4	0.9	0.9	0.2	0.2
2.055	15.4459	15.4025	24.9823	1.4	1.4	0.9	0.9	0.2	0.2
2.056	15.4884	15.4693	25.0858	1.4	1.4	0.9	0.9	0.2	0.2
2.057	15.5218	15.5232	25.1897	1.4	1.4	0.9	0.9	0.2	0.2
2.058	15.5537	15.5728	25.3004	1.4	1.4	0.9	0.9	0.2	0.2
2.059	15.5963	15.6297	25.4053	1.4	1.4	0.9	0.9	0.2	0.2
2.06	15.6476	15.6892	25.4957	1.4	1.4	0.9	0.9	0.2	0.2
2.061	15.6906	15.7316	25.5752	1.4	1.4	0.9	0.9	0.2	0.2
2.062	15.7195	15.7509	25.6499	1.4	1.4	0.9	0.9	0.2	0.2
2.063	15.7518	15.7715	25.732	1.4	1.4	0.9	0.9	0.2	0.2
2.064	15.7971	15.8134	25.826	1.4	1.4	0.9	0.9	0.2	0.2
2.065	15.845	15.8613	25.9241	1.4	1.4	0.9	0.9	0.2	0.2
2.066	15.8903	15.8971	26.0154	1.4	1.4	0.9	0.9	0.2	0.2
2.067	15.9387	15.9263	26.1	1.4	1.4	0.9	0.9	0.2	0.2
2.068	15.9883	15.9596	26.1861	1.4	1.4	0.9	0.9	0.2	0.2
2.069	16.0312	15.9939	26.2731	1.4	1.4	0.9	0.9	0.2	0.2
2.07	16.0737	16.023	26.3635	1.4	1.4	0.9	0.9	0.2	0.2
2.071	16.1269	16.0548	26.4634	1.4	1.4	0.9	0.9	0.2	0.2
2.072	16.1983	16.1049	26.581	1.4	1.4	0.9	0.9	0.2	0.2
2.073	16.2758	16.1676	26.7073	1.4	1.4	0.9	0.9	0.2	0.2
2.074	16.3385	16.2242	26.8213	1.4	1.4	0.9	0.9	0.2	0.2
2.075	16.3928	16.2771	26.9229	1.4	1.4	0.9	0.9	0.2	0.2
2.076	16.457	16.3439	27.0306	1.4	1.4	0.9	0.9	0.2	0.2
2.077	16.5268	16.4146	27.1446	1.4	1.4	0.9	0.9	0.2	0.2
2.078	16.5888	16.474	27.2477	1.4	1.4	0.9	0.9	0.2	0.2
2.079	16.6478	16.5307	27.338	1.4	1.4	0.9	0.9	0.2	0.2
2.08	16.712	16.5906	27.4231	1.4	1.4	0.9	0.9	0.2	0.2
2.081	16.7795	16.6571	27.5144	1.4	1.4	0.9	0.9	0.2	0.2
2.082	16.8462	16.7293	27.6148	1.4	1.4	0.9	0.9	0.2	0.2
2.083	16.9145	16.7995	27.7111	1.4	1.4	0.9	0.9	0.2	0.2
2.084	16.9843	16.8664	27.7969	1.4	1.4	0.9	0.9	0.2	0.2
2.085	17.0308	16.9136	27.8692	1.4	1.4	0.9	0.9	0.2	0.2
2.086	17.0509	16.9412	27.9393	1.4	1.4	0.9	0.9	0.2	0.2
2.087	17.0754	16.9775	28.0277	1.4	1.4	0.9	0.9	0.2	0.2
2.088	17.1199	17.0345	28.1314	1.4	1.4	0.9	0.9	0.2	0.2
2.089	17.1657	17.0911	28.2246	1.4	1.4	0.9	0.9	0.2	0.2
2.09	17.1874	17.1236	28.2957	1.4	1.4	0.9	0.9	0.2	0.2
2.091	17.193	17.1423	28.37	1.4	1.4	0.9	0.9	0.2	0.2
2.092	17.2194	17.1759	28.4695	1.4	1.4	0.9	0.9	0.2	0.2
2.093	17.2676	17.2265	28.5754	1.4	1.4	0.9	0.9	0.2	0.2
2.094	17.3155	17.2816	28.6671	1.4	1.4	0.9	0.9	0.2	0.2
2.095	17.3571	17.3351	28.751	1.4	1.4	0.9	0.9	0.2	0.2
2.096	17.396	17.3842	28.8373	1.4	1.4	0.9	0.9	0.2	0.2
2.097	17.4352	17.4288	28.928	1.4	1.4	0.9	0.9	0.2	0.2
2.098	17.4791	17.4781	29.0251	1.4	1.4	0.9	0.9	0.2	0.2
2.099	17.5338	17.5432	29.1348	1.4	1.4	0.9	0.9	0.2	0.2
2.1	17.6016	17.6221	29.2573	1.4	1.4	0.9	0.9	0.2	0.2
2.101	17.6728	17.6955	29.3799	1.4	1.4	0.9	0.9	0.2	0.2
2.102	17.732	17.7427	29.4867	1.4	1.4	0.9	0.9	0.2	0.2
2.103	17.7819	17.7745	29.5844	1.4	1.4	0.9	0.9	0.2	0.2
2.104	17.836	17.8164	29.6862	1.4	1.4	0.9	0.9	0.2	0.2
2.105	17.9011	17.873	29.7917	1.4	1.4	0.9	0.9	0.2	0.2
2.106	17.9833	17.9372	29.9029	1.4	1.4	0.9	0.9	0.2	0.2
2.107	18.0759	18.0075	30.0196	1.4	1.4	0.9	0.9	0.2	0.2
2.108	18.1651	18.0811	30.1406	1.4	1.4	0.9	0.9	0.2	0.2
2.109	18.2405	18.1451	30.2485	1.4	1.4	0.9	0.9	0.2	0.2
2.11	18.3036	18.2059	30.3404	1.4	1.4	0.9	0.9	0.2	0.2
2.111	18.3729	18.2858	30.44	1.4	1.4	0.9	0.9	0.2	0.2
2.112	18.4539	18.3794	30.5554	1.4	1.4	0.9	0.9	0.2	0.2
2.113	18.5249	18.4488	30.6579	1.4	1.4	0.9	0.9	0.2	0.2
2.114	18.5749	18.4877	30.7261	1.4	1.4	0.9	0.9	0.2	0.2
2.115	18.6123	18.5178	30.7703	1.4	1.4	0.9	0.9	0.2	0.2
2.116	18.6494	18.5479	30.8136	1.4	1.4	0.9	0.9	0.2	0.2
2.117	18.6997	18.5804	30.8734	1.4	1.4	0.9	0.9	0.2	0.2
2.118	18.7551	18.6105	30.9395	1.4	1.4	0.9	0.9	0.2	0.2
2.119	18.8027	18.6376	30.9996	1.4	1.4	0.9	0.9	0.2	0.2
2.12	18.8382	18.6615	31.0538	1.4	1.4	0.9	0.9	0.2	0.2
2.121	18.8593	18.678	31.106	1.4	1.4	0.9	0.9	0.2	0.2
2.122	18.8867	18.7007	31.1696	1.4	1.4	0.9	0.9	0.2	0.2
2.123	18.9277	18.7308	31.2406	1.4	1.4	0.9	0.9	0.2	0.2
2.124	18.9606	18.754	31.2992	1.4	1.4	0.9	0.9	0.2	0.2
2.125	18.9825	18.7692	31.3532	1.4	1.4	0.9	0.9	0.2	0.2
2.126	19.0157	18.7947	31.4272	1.4	1.4	0.9	0.9	0.2	0.2
2.127	19.0596	18.8385	31.5218	1.4	1.4	0.9	0.9	0.2	0.2
2.128	19.0988	18.8921	31.6146	1.4	1.4	0.9	0.9	0.2	0.2
2.129	19.1277	18.9405	31.6851	1.4	1.4	0.9	0.9	0.2	0.2
2.13	19.1394	18.9655	31.7317	1.4	1.4	0.9	0.9	0.2	0.2
2.131	19.1372	18.9778	31.7727	1.4	1.4	0.9	0.9	0.2	0.2
2.132	19.1248	18.9828	31.8094	1.4	1.4	0.9	0.9	0.2	0.2
2.133	19.114	18.9857	31.8482	1.4	1.4	0.9	0.9	0.2	0.2
2.134	19.1186	19.0051	31.8995	1.4	1.4	0.9	0.9	0.2	0.2
2.135	19.1338	19.0391	31.9536	1.4	1.4	0.9	0.9	0.2	0.2
2.136	19.1583	19.074	32.0045	1.4	1.4	0.9	0.9	0.2	0.2
2.137	19.1872	19.0978	32.05	1.4	1.4	0.9	0.9	0.2	0.2
2.138	19.219	19.1196	32.0966	1.4	1.4	0.9	0.9	0.2	0.2
2.139	19.2614	19.1589	32.1497	1.4	1.4	0.9	0.9	0.2	0.2
2.14	19.3088	19.2075	32.203	1.4	1.4	0.9	0.9	0.2	0.2
2.141	19.3573	19.2521	32.2621	1.4	1.4	0.9	0.9	0.2	0.2
2.142	19.4229	19.3142	32.3434	1.4	1.4	0.9	0.9	0.2	0.2
2.143	19.4942	19.3949	32.4344	1.4	1.4	0.9	0.9	0.2	0.2
2.144	19.54	19.4593	32.5062	1.4	1.4	0.9	0.9	0.2	0.2
2.145	19.5719	19.5063	32.5576	1.4	1.4	0.9	0.9	0.2	0.2
2.146	19.6076	19.5558	32.609	1.4	1.4	0.9	0.9	0.2	0.2
2.147	19.6339	19.5961	32.6525	1.4	1.4	0.9	0.9	0.2	0.2
2.148	19.6505	19.6139	32.6792	1.4	1.4	0.9	0.9	0.2	0.2
2.149	19.6716	19.6203	32.7031	1.4	1.4	0.9	0.9	0.2	0.2
2.15	19.6893	19.6262	32.7191	1.4	1.4	0.9	0.9	0.2	0.2
2.151	19.6914	19.6264	32.7169	1.4	1.4	0.9	0.9	0.2	0.2
2.152	19.6941	19.6225	32.7164	1.4	1.4	0.9	0.9	0.2	0.2
2.153	19.7177	19.6302	32.7326	1.4	1.4	0.9	0.9	0.2	0.2
2.154	19.7475	19.6473	32.7518	1.4	1.4	0.9	0.9	0.2	0.2
2.155	19.7694	19.661	32.7728	1.4	1.4	0.9	0.9	0.2	0.2
2.156	19.784	19.667	32.8014	1.4	1.4	0.9	0.9	0.2	0.2
2.157	19.7955	19.6771	32.8323	1.4	1.4	0.9	0.9	0.2	0.2
2.158	19.8077	19.6923	32.857	1.4	1.4	0.9	0.9	0.2	0.2
2.159	19.8242	19.7031	32.8764	1.4	1.4	0.9	0.9	0.2	0.2
2.16	19.8502	19.7215	32.909	1.4	1.4	0.9	0.9	0.2	0.2
2.161	19.8839	19.7537	32.9628	1.4	1.4	0.9	0.9	0.2	0.2
2.162	19.9082	19.7821	33.0129	1.4	1.4	0.9	0.9	0.2	0.2
2.163	19.9122	19.7919	33.0458	1.4	1.4	0.9	0.9	0.2	0.2
2.164	19.9049	19.785	33.066	1.4	1.4	0.9	0.9	0.2	0.2
2.165	19.8934	19.7684	33.0704	1.4	1.4	0.9	0.9	0.2	0.2
2.166	19.8697	19.7467	33.06	1.4	1.4	0.9	0.9	0.2	0.2
2.167	19.842	19.7295	33.0582	1.4	1.4	0.9	0.9	0.2	0.2
2.168	19.8231	19.7148	33.0739	1.4	1.4	0.9	0.9	0.2	0.2
2.169	19.8187	19.7082	33.0935	1.4	1.4	0.9	0.9	0.2	0.2
2.17	19.8222	19.7135	33.104	1.4	1.4	0.9	0.9	0.2	0.2
2.171	19.828	19.7218	33.1158	1.4	1.4	0.9	0.9	0.2	0.2
2.172	19.8446	19.7365	33.1541	1.4	1.4	0.9	0.9	0.2	0.2
2.173	19.866	19.7582	33.2099	1.4	1.4	0.9	0.9	0.2	0.2
2.174	19.8776	19.7747	33.2536	1.4	1.4	0.9	0.9	0.2	0.2
2.175	19.8751	19.779	33.2801	1.4	1.4	0.9	0.9	0.2	0.2
2.176	19.8682	19.7852	33.3106	1.4	1.4	0.9	0.9	0.2	0.2
2.177	19.8759	19.8144	33.3565	1.4	1.4	0.9	0.9	0.2	0.2
2.178	19.9051	19.8679	33.4104	1.4	1.4	0.9	0.9	0.2	0.2
2.179	19.927	19.9068	33.4505	1.4	1.4	0.9	0.9	0.2	0.2
2.18	19.9218	19.9074	33.4659	1.4	1.4	0.9	0.9	0.2	0.2
2.181	19.9183	19.9041	33.4812	1.4	1.4	0.9	0.9	0.2	0.2
2.182	19.9279	19.9205	33.5114	1.4	1.4	0.9	0.9	0.2	0.2
2.183	19.9303	19.9365	33.5381	1.4	1.4	0.9	0.9	0.2	0.2
2.184	19.9299	19.9414	33.5608	1.4	1.4	0.9	0.9	0.2	0.2
2.185	19.9446	19.9503	33.5937	1.4	1.4	0.9	0.9	0.2	0.2
2.186	19.9594	19.9669	33.6213	1.4	1.4	0.9	0.9	0.2	0.2
2.187	19.9587	19.9784	33.6364	1.4	1.4	0.9	0.9	0.2	0.2
2.188	19.9604	19.9826	33.6543	1.4	1.4	0.9	0.9	0.2	0.2
2.189	19.9695	19.9803	33.6708	1.4	1.4	0.9	0.9	0.2	0.2
2.19	19.9766	19.9759	33.6862	1.4	1.4	0.9	0.9	0.2	0.2
2.191	19.9842	19.9799	33.7147	1.4	1.4	0.9	0.9	0.2	0.2
2.192	19.9907	19.9902	33.7427	1.4	1.4	0.9	0.9	0.2	0.2
2.193	19.9919	19.9965	33.7545	1.4	1.4	0.9	0.9	0.2	0.2
2.194	19.9936	19.9929	33.763	1.4	1.4	0.9	0.9	0.2	0.2
2.195	20.0099	19.9938	33.7915	1.4	1.4	0.9	0.9	0.2	0.2
2.196	20.0393	20.0104	33.8397	1.4	1.4	0.9	0.9	0.2	0.2
2.197	20.0592	20.0179	33.8817	1.4	1.4	0.9	0.9	0.2	0.2
2.198	20.0606	19.9986	33.9021	1.4	1.4	0.9	0.9	0.2	0.2
2.199	20.0635	19.9825	33.9219	1.4	1.4	0.9	0.9	0.2	0.2
2.2	20.0767	19.9876	33.9512	1.4	1.4	0.9	0.9	0.2	0.2
2.201	20.0847	19.9932	33.9706	1.4	1.4	0.9	0.9	0.2	0.2
2.202	20.0844	19.9926	33.9812	1.4	1.4	0.9	0.9	0.2	0.2
2.203	20.0921	20.0035	34.0078	1.4	1.4	0.9	0.9	0.2	0.2
2.204	20.1019	20.0201	34.0418	1.4	1.4	0.9	0.9	0.2	0.2
2.205	20.093	20.0182	34.0528	1.4	1.4	0.9	0.9	0.2	0.2
2.206	20.0681	19.9982	34.0476	1.4	1.4	0.9	0.9	0.2	0.2
2.207	20.0494	19.9841	34.0598	1.4	1.4	0.9	0.9	0.2	0.2
2.208	20.0446	19.9844	34.0906	1.4	1.4	0.9	0.9	0.2	0.2
2.209	20.0378	19.9789	34.1064	1.4	1.4	0.9	0.9	0.2	0.2
2.21	20.0259	19.964	34.1054	1.4	1.4	0.9	0.9	0.2	0.2
2.211	20.0163	19.9513	34.1076	1.4	1.4	0.9	0.9	0.2	0.2
2.212	20.0101	19.9402	34.1143	1.4	1.4	0.9	0.9	0.2	0.2
2.213	20.0131	19.9332	34.1252	1.4	1.4	0.9	0.9	0.2	0.2
2.214	20.0274	19.9387	34.1482	1.4	1.4	0.9	0.9	0.2	0.2
2.215	20.0361	19.9402	34.1687	1.4	1.4	0.9	0.9	0.2	0.2
2.216	20.0255	19.9197	34.1666	1.4	1.4	0.9	0.9	0.2	0.2
2.217	20.0058	19.8965	34.1606	1.4	1.4	0.9	0.9	0.2	0.2
2.218	19.9905	19.8897	34.1696	1.4	1.4	0.9	0.9	0.2	0.2
2.219	19.9796	19.887	34.1792	1.4	1.4	0.9	0.9	0.2	0.2
2.22	19.9725	19.8819	34.1835	1.4	1.4	0.9	0.9	0.2	0.2
2.221	19.975	19.8874	34.1965	1.4	1.4	0.9	0.9	0.2	0.2
2.222	19.9762	19.8968	34.2091	1.4	1.4	0.9	0.9	0.2	0.2
2.223	19.9642	19.8906	34.2031	1.4	1.4	0.9	0.9	0.2	0.2
2.224	19.9527	19.8784	34.1856	1.4	1.4	0.9	0.9	0.2	0.2
2.225	19.9451	19.873	34.1659	1.4	1.4	0.9	0.9	0.2	0.2
2.226	19.9334	19.8739	34.1505	1.4	1.4	0.9	0.9	0.2	0.2
2.227	19.9192	19.8755	34.1469	1.4	1.4	0.9	0.9	0.2	0.2
2.228	19.9165	19.8773	34.1653	1.4	1.4	0.9	0.9	0.2	0.2
2.229	19.9278	19.8857	34.1928	1.4	1.4	0.9	0.9	0.2	0.2
2.23	19.9399	19.8941	34.2017	1.4	1.4	0.9	0.9	0.2	0.2
2.231	19.953	19.8999	34.2003	1.4	1.4	0.9	0.9	0.2	0.2
2.232	19.9626	19.898	34.204	1.4	1.4	0.9	0.9	0.2	0.2
2.233	19.9567	19.8823	34.2089	1.4	1.4	0.9	0.9	0.2	0.2
2.234	19.9445	19.8678	34.2068	1.4	1.4	0.9	0.9	0.2	0.2
2.235	19.9325	19.8632	34.1977	1.4	1.4	0.9	0.9	0.2	0.2
2.236	19.9111	19.8496	34.1831	1.4	1.4	0.9	0.9	0.2	0.2
2.237	19.8778	19.8179	34.1612	1.4	1.4	0.9	0.9	0.2	0.2
2.238	19.845	19.7924	34.1419	1.4	1.4	0.9	0.9	0.2	0.2
2.239	19.8149	19.7801	34.1223	1.4	1.4	0.9	0.9	0.2	0.2
2.24	19.7741	19.7516	34.0883	1.4	1.4	0.9	0.9	0.2	0.2
2.241	19.7208	19.7023	34.0443	1.4	1.4	0.9	0.9	0.2	0.2
2.242	19.6793	19.6656	34.0086	1.4	1.4	0.9	0.9	0.2	0.2
2.243	19.6716	19.6588	33.9947	1.4	1.4	0.9	0.9	0.2	0.2
2.244	19.6712	19.6483	33.9823	1.4	1.4	0.9	0.9	0.2	0.2
2.245	19.6372	19.5999	33.9423	1.4	1.4	0.9	0.9	0.2	0.2
2.246	19.5852	19.5354	33.8859	1.4	1.4	0.9	0.9	0.2	0.2
2.247	19.5484	19.4829	33.8374	1.4	1.4	0.9	0.9	0.2	0.2
2.248	19.5298	19.443	33.8036	1.4	1.4	0.9	0.9	0.2	0.2
2.249	19.513	19.408	33.7696	1.4	1.4	0.9	0.9	0.2	0.2
2.25	19.4817	19.3691	33.7187	1.4	1.4	0.9	0.9	0.2	0.2
2.251	19.4382	19.3267	33.6609	1.4	1.4	0.9	0.9	0.2	0.2
2.252	19.3972	19.2869	33.6137	1.4	1.4	0.9	0.9	0.2	0.2
2.253	19.3591	19.2467	33.5727	1.4	1.4	0.9	0.9	0.2	0.2
2.254	19.3167	19.2021	33.5193	1.4	1.4	0.9	0.9	0.2	0.2
2.255	19.2708	19.1545	33.4606	1.4	1.4	0.9	0.9	0.2	0.2
2.256	19.2277	19.1147	33.4211	1.4	1.4	0.9	0.9	0.2	0.2
2.257	19.1969	19.0841	33.3882	1.4	1.4	0.9	0.9	0.2	0.2
2.258	19.1681	19.0432	33.3347	1.4	1.4	0.9	0.9	0.2	0.2
2.259	19.1236	18.993	33.2704	1.4	1.4	0.9	0.9	0.2	0.2
2.26	19.0604	18.9387	33.2101	1.4	1.4	0.9	0.9	0.2	0.2
2.261	19.0028	18.8844	33.1554	1.4	1.4	0.9	0.9	0.2	0.2
2.262	18.9598	18.8379	33.1112	1.4	1.4	0.9	0.9	0.2	0.2
2.263	18.9079	18.7849	33.0729	1.4	1.4	0.9	0.9	0.2	0.2
2.264	18.8468	18.7213	33.0301	1.4	1.4	0.9	0.9	0.2	0.2
2.265	18.7978	18.6578	32.9717	1.4	1.4	0.9	0.9	0.2	0.2
2.266	18.7615	18.5999	32.9088	1.4	1.4	0.9	0.9	0.2	0.2
2.267	18.7092	18.5401	32.8556	1.4	1.4	0.9	0.9	0.2	0.2
2.268	18.6203	18.4599	32.7974	1.4	1.4	0.9	0.9	0.2	0.2
2.269	18.5152	18.3655	32.7253	1.4	1.4	0.9	0.9	0.2	0.2
2.27	18.426	18.2899	32.6537	1.4	1.4	0.9	0.9	0.2	0.2
2.271	18.3414	18.2344	32.588	1.4	1.4	0.9	0.9	0.2	0.2
2.272	18.2412	18.1735	32.5134	1.4	1.4	0.9	0.9	0.2	0.2
2.273	18.1471	18.1121	32.4284	1.4	1.4	0.9	0.9	0.2	0.2
2.274	18.0777	18.0658	32.3426	1.4	1.4	0.9	0.9	0.2	0.2
2.275	18.0143	18.0243	32.2518	1.4	1.4	0.9	0.9	0.2	0.2
2.276	17.9473	17.9786	32.1599	1.4	1.4	0.9	0.9	0.2	0.2
2.277	17.8909	17.9432	32.0828	1.4	1.4	0.9	0.9	0.2	0.2
2.278	17.8499	17.9252	32.0269	1.4	1.4	0.9	0.9	0.2	0.2
2.279	17.808	17.8996	31.9754	1.4	1.4	0.9	0.9	0.2	0.2
2.28	17.7442	17.8448	31.9067	1.4	1.4	0.9	0.9	0.2	0.2
2.281	17.6695	17.7865	31.8275	1.4	1.4	0.9	0.9	0.2	0.2
2.282	17.6192	17.7559	31.7572	1.4	1.4	0.9	0.9	0.2	0.2
2.283	17.5954	17.7435	31.6998	1.4	1.4	0.9	0.9	0.2	0.2
2.284	17.5715	17.7236	31.643	1.4	1.4	0.9	0.9	0.2	0.2
2.285	17.5388	17.6915	31.575	1.4	1.4	0.9	0.9	0.2	0.2
2.286	17.5102	17.6708	31.5149	1.4	1.4	0.9	0.9	0.2	0.2
2.287	17.4891	17.6674	31.4804	1.4	1.4	0.9	0.9	0.2	0.2
2.288	17.4747	17.6541	31.4423	1.4	1.4	0.9	0.9	0.2	0.2
2.289	17.4679	17.6265	31.3846	1.4	1.4	0.9	0.9	0.2	0.2
2.29	17.4633	17.6044	31.3344	1.4	1.4	0.9	0.9	0.2	0.2
2.291	17.4515	17.5834	31.3109	1.4	1.4	0.9	0.9	0.2	0.2
2.292	17.4481	17.5661	31.3119	1.4	1.4	0.9	0.9	0.2	0.2
2.293	17.4624	17.5561	31.2958	1.4	1.4	0.9	0.9	0.2	0.2
2.294	17.4648	17.5433	31.2499	1.4	1.4	0.9	0.9	0.2	0.2
2.295	17.4452	17.5276	31.215	1.4	1.4	0.9	0.9	0.2	0.2
2.296	17.4131	17.4919	31.1883	1.4	1.4	0.9	0.9	0.2	0.2
2.297	17.4111	17.4644	31.1651	1.4	1.4	0.9	0.9	0.2	0.2
2.298	17.4246	17.45	31.1373	1.4	1.4	0.9	0.9	0.2	0.2
2.299	17.3916	17.3971	31.0881	1.4	1.4	0.9	0.9	0.2	0.2
2.3	17.3547	17.3321	31.0397	1.4	1.4	0.9	0.9	0.2	0.2
2.301	17.3389	17.2658	30.983	1.4	1.4	0.9	0.9	0.2	0.2
2.302	17.3105	17.1908	30.911	1.4	1.4	0.9	0.9	0.2	0.2
2.303	17.2461	17.1124	30.8355	1.4	1.4	0.9	0.9	0.2	0.2
2.304	17.1573	17.0201	30.7463	1.4	1.4	0.9	0.9	0.2	0.2
2.305	17.0823	16.9249	30.644	1.4	1.4	0.9	0.9	0.2	0.2
2.306	17.0246	16.8432	30.5416	1.4	1.4	0.9	0.9	0.2	0.2
2.307	16.9712	16.7808	30.4451	1.4	1.4	0.9	0.9	0.2	0.2
2.308	16.9213	16.7329	30.3482	1.4	1.4	0.9	0.9	0.2	0.2
2.309	16.8739	16.6864	30.2459	1.4	1.4	0.9	0.9	0.2	0.2
2.31	16.8158	16.6261	30.1474	1.4	1.4	0.9	0.9	0.2	0.2
2.311	16.7429	16.5537	30.0598	1.4	1.4	0.9	0.9	0.2	0.2
2.312	16.6923	16.5095	29.9989	1.4	1.4	0.9	0.9	0.2	0.2
2.313	16.6876	16.5139	29.9804	1.4	1.4	0.9	0.9	0.2	0.2
2.314	16.6761	16.5094	29.9649	1.4	1.4	0.9	0.9	0.2	0.2
2.315	16.608	16.444	29.8995	1.4	1.4	0.9	0.9	0.2	0.2
2.316	16.5224	16.3628	29.8101	1.4	1.4	0.9	0.9	0.2	0.2
2.317	16.4686	16.32	29.74	1.4	1.4	0.9	0.9	0.2	0.2
2.318	16.4187	16.2813	29.6614	1.4	1.4	0.9	0.9	0.2	0.2
2.319	16.3301	16.2049	29.546	1.4	1.4	0.9	0.9	0.2	0.2
2.32	16.2385	16.1199	29.4369	1.4	1.4	0.9	0.9	0.2	0.2
2.321	16.1941	16.0588	29.3709	1.4	1.4	0.9	0.9	0.2	0.2
2.322	16.1654	16.005	29.3075	1.4	1.4	0.9	0.9	0.2	0.2
2.323	16.1125	15.9484	29.2071	1.4	1.4	0.9	0.9	0.2	0.2
2.324	16.069	15.9104	29.1009	1.4	1.4	0.9	0.9	0.2	0.2
2.325	16.0525	15.8873	29.0168	1.4	1.4	0.9	0.9	0.2	0.2
2.326	16.0208	15.8455	28.928	1.4	1.4	0.9	0.9	0.2	0.2
2.327	15.9566	15.7893	28.8222	1.4	1.4	0.9	0.9	0.2	0.2
2.328	15.8984	15.7503	28.7219	1.4	1.4	0.9	0.9	0.2	0.2
2.329	15.8571	15.7159	28.6171	1.4	1.4	0.9	0.9	0.2	0.2
2.33	15.8092	15.6586	28.5161	1.4	1.4	0.9	0.9	0.2	0.2
2.331	15.7621	15.6072	28.4518	1.4	1.4	0.9	0.9	0.2	0.2
2.332	15.7382	15.5979	28.4142	1.4	1.4	0.9	0.9	0.2	0.2
2.333	15.7597	15.6375	28.3944	1.4	1.4	0.9	0.9	0.2	0.2
2.334	15.7831	15.6711	28.3706	1.4	1.4	0.9	0.9	0.2	0.2
2.335	15.7682	15.6552	28.3218	1.4	1.4	0.9	0.9	0.2	0.2
2.336	15.7506	15.6203	28.2635	1.4	1.4	0.9	0.9	0.2	0.2
2.337	15.7375	15.567	28.2169	1.4	1.4	0.9	0.9	0.2	0.2
2.338	15.7408	15.5299	28.2034	1.4	1.4	0.9	0.9	0.2	0.2
2.339	15.7394	15.5198	28.1882	1.4	1.4	0.9	0.9	0.2	0.2
2.34	15.7242	15.5005	28.1418	1.4	1.4	0.9	0.9	0.2	0.2
2.341	15.731	15.4842	28.095	1.4	1.4	0.9	0.9	0.2	0.2
2.342	15.7574	15.4925	28.0834	1.4	1.4	0.9	0.9	0.2	0.2
2.343	15.7758	15.5278	28.1065	1.4	1.4	0.9	0.9	0.2	0.2
2.344	15.766	15.5602	28.1222	1.4	1.4	0.9	0.9	0.2	0.2
2.345	15.7504	15.5686	28.1371	1.4	1.4	0.9	0.9	0.2	0.2
2.346	15.7418	15.5582	28.1721	1.4	1.4	0.9	0.9	0.2	0.2
2.347	15.7412	15.558	28.1997	1.4	1.4	0.9	0.9	0.2	0.2
2.348	15.7447	15.5948	28.2073	1.4	1.4	0.9	0.9	0.2	0.2
2.349	15.7275	15.6301	28.2065	1.4	1.4	0.9	0.9	0.2	0.2
2.35	15.6799	15.599	28.1955	1.4	1.4	0.9	0.9	0.2	0.2
2.351	15.596	15.516	28.1512	1.4	1.4	0.9	0.9	0.2	0.2
2.352	15.5036	15.462	28.0869	1.4	1.4	0.9	0.9	0.2	0.2
2.353	15.433	15.4651	28.0537	1.4	1.4	0.9	0.9	0.2	0.2
2.354	15.3742	15.4654	28.0382	1.4	1.4	0.9	0.9	0.2	0.2
2.355	15.3294	15.4221	27.9863	1.4	1.4	0.9	0.9	0.2	0.2
2.356	15.3437	15.4142	27.9292	1.4	1.4	0.9	0.9	0.2	0.2
2.357	15.3941	15.4524	27.8866	1.4	1.4	0.9	0.9	0.2	0.2
2.358	15.4011	15.439	27.8092	1.4	1.4	0.9	0.9	0.2	0.2
2.359	15.3677	15.3813	27.7018	1.4	1.4	0.9	0.9	0.2	0.2
2.36	15.3134	15.3369	27.5953	1.4	1.4	0.9	0.9	0.2	0.2
2.361	15.2325	15.2956	27.4731	1.4	1.4	0.9	0.9	0.2	0.2
2.362	15.1273	15.2147	27.3214	1.4	1.4	0.9	0.9	0.2	0.2
2.363	15.0233	15.1203	27.19	1.4	1.4	0.9	0.9	0.2	0.2
2.364	14.9323	15.0335	27.0918	1.4	1.4	0.9	0.9	0.2	0.2
2.365	14.8389	14.9512	26.9855	1.4	1.4	0.9	0.9	0.2	0.2
2.366	14.7338	14.8677	26.8718	1.4	1.4	0.9	0.9	0.2	0.2
2.367	14.6356	14.7767	26.7694	1.4	1.4	0.9	0.9	0.2	0.2
2.368	14.5667	14.7045	26.6787	1.4	1.4	0.9	0.9	0.2	0.2
2.369	14.5008	14.6409	26.5663	1.4	1.4	0.9	0.9	0.2	0.2
2.37	14.4019	14.5703	26.4318	1.4	1.4	0.9	0.9	0.2	0.2
2.371	14.2895	14.4818	26.3004	1.4	1.4	0.9	0.9	0.2	0.2
2.372	14.2007	14.3529	26.1554	1.4	1.4	0.9	0.9	0.2	0.2
2.373	14.1294	14.2272	26.0121	1.4	1.4	0.9	0.9	0.2	0.2
2.374	14.0616	14.1772	25.8809	1.4	1.4	0.9	0.9	0.2	0.2
2.375	14.0003	14.1619	25.732	1.4	1.4	0.9	0.9	0.2	0.2
2.376	13.9721	14.1254	25.5964	1.4	1.4	0.9	0.9	0.2	0.2
2.377	13.9443	14.0713	25.4855	1.4	1.4	0.9	0.9	0.2	0.2
2.378	13.8409	13.9789	25.3472	1.4	1.4	0.9	0.9	0.2	0.2
2.379	13.7034	13.8833	25.1986	1.4	1.4	0.9	0.9	0.2	0.2
2.38	13.6263	13.8475	25.0768	1.4	1.4	0.9	0.9	0.2	0.2
2.381	13.5625	13.8131	24.9519	1.4	1.4	0.9	0.9	0.2	0.2
2.382	13.4726	13.7698	24.8329	1.4	1.4	0.9	0.9	0.2	0.2
2.383	13.4189	13.7791	24.7473	1.4	1.4	0.9	0.9	0.2	0.2
2.384	13.3548	13.7645	24.6345	1.4	1.4	0.9	0.9	0.2	0.2
2.385	13.2422	13.6658	24.4798	1.4	1.4	0.9	0.9	0.2	0.2
2.386	13.133	13.5289	24.3371	1.4	1.4	0.9	0.9	0.2	0.2
2.387	13.0338	13.4178	24.1978	1.4	1.4	0.9	0.9	0.2	0.2
2.388	12.9582	13.3831	24.0712	1.4	1.4	0.9	0.9	0.2	0.2
2.389	12.9276	13.3885	24.0016	1.4	1.4	0.9	0.9	0.2	0.2
2.39	12.9088	13.3419	23.9236	1.4	1.4	0.9	0.9	0.2	0.2
2.391	12.8716	13.2498	23.7846	1.4	1.4	0.9	0.9	0.2	0.2
2.392	12.8123	13.2077	23.6552	1.4	1.4	0.9	0.9	0.2	0.2
2.393	12.7126	13.1486	23.5469	1.4	1.4	0.9	0.9	0.2	0.2
2.394	12.6086	13.0136	23.4542	1.4	1.4	0.9	0.9	0.2	0.2
2.395	12.5337	12.9176	23.3948	1.4	1.4	0.9	0.9	0.2	0.2
2.396	12.4645	12.9381	23.3752	1.4	1.4	0.9	0.9	0.2	0.2
2.397	12.4146	12.9936	23.3744	1.4	1.4	0.9	0.9	0.2	0.2
2.398	12.3289	12.9233	23.2858	1.4	1.4	0.9	0.9	0.2	0.2
2.399	12.1909	12.7745	23.1303	1.4	1.4	0.9	0.9	0.2	0.2
2.4	12.0662	12.646	22.991	1.4	1.4	0.9	0.9	0.2	0.2
2.401	11.9601	12.5172	22.8488	1.4	1.4	0.9	0.9	0.2	0.2
2.402	11.8315	12.3764	22.6712	1.4	1.4	0.9	0.9	0.2	0.2
2.403	11.711	12.2831	22.4926	1.4	1.4	0.9	0.9	0.2	0.2
2.404	11.6669	12.2746	22.3892	1.4	1.4	0.9	0.9	0.2	0.2
2.405	11.6608	12.2592	22.3119	1.4	1.4	0.9	0.9	0.2	0.2
2.406	11.7194	12.2756	22.2819	1.4	1.4	0.9	0.9	0.2	0.2
2.407	11.8495	12.3462	22.2933	1.4	1.4	0.9	0.9	0.2	0.2
2.408	11.8782	12.3111	22.1721	1.4	1.4	0.9	0.9	0.2	0.2
2.409	11.8075	12.2219	21.9789	1.4	1.4	0.9	0.9	0.2	0.2
2.41	11.8427	12.2613	21.8917	1.4	1.4	0.9	0.9	0.2	0.2
2.411	11.9977	12.3782	21.8829	1.4	1.4	0.9	0.9	0.2	0.2
2.412	12.0743	12.4345	21.8401	1.4	1.4	0.9	0.9	0.2	0.2
2.413	12.0297	12.4269	21.7328	1.4	1.4	0.9	0.9	0.2	0.2
2.414	11.9418	12.3409	21.5201	1.4	1.4	0.9	0.9	0.2	0.2
2.415	11.8806	12.2265	21.2624	1.4	1.4	0.9	0.9	0.2	0.2
2.416	11.8613	12.1825	21.0706	1.4	1.4	0.9	0.9	0.2	0.2
2.417	11.8382	12.1728	20.9173	1.4	1.4	0.9	0.9	0.2	0.2
2.418	11.8055	12.0891	20.7561	1.4	1.4	0.9	0.9	0.2	0.2
2.419	11.7314	11.8817	20.538	1.4	1.4	0.9	0.9	0.2	0.2
2.42	11.5835	11.602	20.223	1.4	1.4	0.9	0.9	0.2	0.2
2.421	11.4475	11.374	19.9188	1.4	1.4	0.9	0.9	0.2	0.2
2.422	11.4338	11.2934	19.7644	1.4	1.4	0.9	0.9	0.2	0.2
2.423	11.4588	11.2702	19.6714	1.4	1.4	0.9	0.9	0.2	0.2
2.424	11.3429	11.1383	19.4611	1.4	1.4	0.9	0.9	0.2	0.2
2.425	11.1293	10.9268	19.2085	1.4	1.4	0.9	0.9	0.2	0.2
2.426	10.9644	10.7761	19.0673	1.4	1.4	0.9	0.9	0.2	0.2
2.427	10.8726	10.7358	19.0159	1.4	1.4	0.9	0.9	0.2	0.2
2.428	10.7626	10.7088	18.8966	1.4	1.4	0.9	0.9	0.2	0.2
2.429	10.6233	10.6146	18.7199	1.4	1.4	0.9	0.9	0.2	0.2
2.43	10.5241	10.4996	18.5951	1.4	1.4	0.9	0.9	0.2	0.2
2.431	10.4505	10.4368	18.5027	1.4	1.4	0.9	0.9	0.2	0.2
2.432	10.3678	10.4349	18.4369	1.4	1.4	0.9	0.9	0.2	0.2
2.433	10.2447	10.3661	18.33	1.4	1.4	0.9	0.9	0.2	0.2
2.434	10.0842	10.1762	18.1307	1.4	1.4	0.9	0.9	0.2	0.2
2.435	9.9848	10.0454	18.0063	1.4	1.4	0.9	0.9	0.2	0.2
2.436	9.9118	10.0326	17.9965	1.4	1.4	0.9	0.9	0.2	0.2
2.437	9.79	10.0102	17.9295	1.4	1.4	0.9	0.9	0.2	0.2
2.438	9.6966	9.9487	17.7969	1.4	1.4	0.9	0.9	0.2	0.2
2.439	9.7398	9.9196	17.7581	1.4	1.4	0.9	0.9	0.2	0.2
2.44	9.9083	9.9256	17.8197	1.4	1.4	0.9	0.9	0.2	0.2
2.441	10.0216	9.876	17.8029	1.4	1.4	0.9	0.9	0.2	0.2
2.442	10.0058	9.7948	17.7417	1.4	1.4	0.9	0.9	0.2	0.2
2.443	9.9459	9.72	17.6898	1.4	1.4	0.9	0.9	0.2	0.2
2.444	9.8841	9.6348	17.5725	1.4	1.4	0.9	0.9	0.2	0.2
2.445	9.8752	9.6263	17.4614	1.4	1.4	0.9	0.9	0.2	0.2
2.446	9.9205	9.75	17.4517	1.4	1.4	0.9	0.9	0.2	0.2
2.447	9.9217	9.845	17.4963	1.4	1.4	0.9	0.9	0.2	0.2
2.448	9.8297	9.7649	17.4937	1.4	1.4	0.9	0.9	0.2	0.2
2.449	9.6741	9.5468	17.3218	1.4	1.4	0.9	0.9	0.2	0.2
2.45	9.4605	9.285	16.9751	1.4	1.4	0.9	0.9	0.2	0.2
2.451	9.3339	9.1506	16.777	1.4	1.4	0.9	0.9	0.2	0.2
2.452	9.4822	9.2944	16.946	1.4	1.4	0.9	0.9	0.2	0.2
2.453	9.666	9.4473	17.0538	1.4	1.4	0.9	0.9	0.2	0.2
2.454	9.4941	9.2044	16.7164	1.4	1.4	0.9	0.9	0.2	0.2
2.455	9.2431	8.9167	16.3195	1.4	1.4	0.9	0.9	0.2	0.2
2.456	9.1828	8.9468	16.1295	1.4	1.4	0.9	0.9	0.2	0.2
2.457	9.1528	9.0507	15.9409	1.4	1.4	0.9	0.9	0.2	0.2
2.458	9.0049	9.0073	15.6346	1.4	1.4	0.9	0.9	0.2	0.2
2.459	8.8254	8.8703	15.2801	1.4	1.4	0.9	0.9	0.2	0.2
2.46	8.7197	8.7561	14.9669	1.4	1.4	0.9	0.9	0.2	0.2
2.461	8.6645	8.699	14.7284	1.4	1.4	0.9	0.9	0.2	0.2
2.462	8.597	8.6804	14.4992	1.4	1.4	0.9	0.9	0.2	0.2
2.463	8.5929	8.7405	14.288	1.4	1.4	0.9	0.9	0.2	0.2
2.464	8.6876	8.8291	14.1093	1.4	1.4	0.9	0.9	0.2	0.2
2.465	8.6471	8.7405	13.8952	1.4	1.4	0.9	0.9	0.2	0.2
2.466	8.4084	8.5194	13.6402	1.4	1.4	0.9	0.9	0.2	0.2
2.467	8.334	8.5598	13.5809	1.4	1.4	0.9	0.9	0.2	0.2
2.468	8.5381	8.9065	13.7861	1.4	1.4	0.9	0.9	0.2	0.2
2.469	8.6248	9.0205	13.8543	1.4	1.4	0.9	0.9	0.2	0.2
2.47	8.5982	8.908	13.7646	1.4	1.4	0.9	0.9	0.2	0.2
2.471	8.5917	8.859	13.6246	1.4	1.4	0.9	0.9	0.2	0.2
2.472	8.5362	8.8172	13.3559	1.4	1.4	0.9	0.9	0.2	0.2
2.473	8.5385	8.6989	13.0575	1.4	1.4	0.9	0.9	0.2	0.2
2.474	8.6499	8.5418	12.8566	1.4	1.4	0.9	0.9	0.2	0.2
2.475	8.7937	8.5017	12.778	1.4	1.4	0.9	0.9	0.2	0.2
2.476	8.9178	8.6036	12.8014	1.4	1.4	0.9	0.9	0.2	0.2
2.477	9.0938	8.7077	12.9669	1.4	1.4	0.9	0.9	0.2	0.2
2.478	9.2583	8.7365	13.1403	1.4	1.4	0.9	0.9	0.2	0.2
2.479	9.0775	8.5523	12.8711	1.4	1.4	0.9	0.9	0.2	0.2
2.48	8.6084	8.2669	12.2477	1.4	1.4	0.9	0.9	0.2	0.2
2.481	8.2439	8.1307	11.8912	1.4	1.4	0.9	0.9	0.2	0.2
2.482	8.0758	8.139	11.903	1.4	1.4	0.9	0.9	0.2	0.2
2.483	0	0	0	1.4	1.4	0.9	0.9	0.2	0.2
2.484	0	0	0	1.4	1.4	0.9	0.9	0.2	0.2
2.485	0	0	0	1.4	1.4	0.9	0.9	0.2	0.2
2.486	0	0	0	1.4	1.4	0.9	0.9	0.2	0.2
2.487	0	0	0	1.4	1.4	0.9	0.9	0.2	0.2
2.488	0	0	0	1.4	1.4	0.9	0.9	0.2	0.2
2.489	0	0	0	1.4	1.4	0.9	0.9	0.2	0.2
2.49	0	0	0	1.4	1.4	0.9	0.9	0.2	0.2
2.491	0	0	0	1.4	1.4	0.9	0.9	0.2	0.2
2.492	0	0	0	1.4	1.4	0.9	0.9	0.2	0.2
2.493	0	0	0	1.4	1.4	0.9	0.9	0.2	0.2
